timestamps,TP9,AF7,AF8,TP10,Right AUX
1627808072.844,-37.109,-13.184,-23.926,-40.527,0.000
1627808072.848,-1.953,-15.137,-15.137,3.418,0.000
1627808072.852,-11.719,-25.879,-18.555,-2.441,0.000
1627808072.856,-47.852,-23.926,-20.020,-47.852,0.000
1627808072.860,-46.875,-21.973,-15.625,-55.664,0.000
1627808072.864,-12.695,-23.438,-14.648,-11.230,0.000
1627808072.867,-3.906,-19.043,-13.672,12.695,0.000
1627808072.871,-39.062,-25.391,-21.484,-26.855,0.000
1627808072.875,-51.270,-29.297,-18.555,-53.223,0.000
1627808072.879,-18.555,-20.996,-11.719,-19.043,0.000
1627808072.883,-3.906,-16.113,-14.160,10.742,0.000
1627808072.887,-31.738,-13.672,-18.555,-20.508,0.000
1627808072.891,-57.129,-19.531,-19.531,-59.570,0.000
1627808072.895,-34.180,-23.926,-20.020,-35.156,0.000
1627808072.899,-4.395,-27.344,-17.090,9.766,0.000
1627808072.903,-22.461,-21.973,-13.672,0.977,0.000
1627808072.907,-49.316,-16.602,-12.695,-42.969,0.000
1627808072.910,-39.551,-18.555,-5.859,-43.945,0.000
1627808072.914,-4.395,-16.113,-3.418,4.395,0.000
1627808072.918,-6.348,-21.484,-9.766,9.766,0.000
1627808072.922,-46.387,-25.391,-16.602,-41.504,0.000
1627808072.926,-52.246,-20.996,-16.113,-51.758,0.000
1627808072.930,-13.672,-18.555,-10.742,-4.883,0.000
1627808072.934,0.000,-21.973,-16.602,9.766,0.000
1627808072.938,-29.297,-23.926,-21.484,-30.273,0.000
1627808072.942,-47.852,-20.996,-15.625,-54.688,0.000
1627808072.946,-18.066,-19.043,-12.695,-25.879,0.000
1627808072.950,6.348,-15.625,-14.160,6.836,0.000
1627808072.953,-10.742,-14.160,-14.160,-12.207,0.000
1627808072.957,-40.527,-20.996,-21.484,-54.688,0.000
1627808072.961,-28.809,-22.461,-21.973,-40.039,0.000
1627808072.965,6.348,-20.508,-15.137,10.742,0.000
1627808072.969,-3.906,-22.461,-16.602,4.395,0.000
1627808072.973,-33.691,-23.926,-20.508,-42.969,0.000
1627808072.977,-34.180,-24.414,-23.926,-44.922,0.000
1627808072.981,-1.953,-14.648,-18.555,2.930,0.000
1627808072.985,6.836,-6.348,-13.672,14.160,0.000
1627808072.989,-32.227,-15.137,-15.625,-30.273,0.000
1627808072.993,-46.387,-19.531,-14.648,-41.504,0.000
1627808072.996,-8.789,-11.719,-11.719,5.859,0.000
1627808073.000,10.742,-6.348,-8.301,30.273,0.000
1627808073.004,-22.949,-7.812,-9.277,-3.906,0.000
1627808073.008,-43.945,-16.602,-15.137,-35.156,0.000
1627808073.012,-13.672,-21.484,-16.602,-8.789,0.000
1627808073.016,13.672,-14.648,-13.672,26.367,0.000
1627808073.020,-9.766,-12.695,-16.602,-1.953,0.000
1627808073.024,-43.945,-19.531,-19.043,-46.387,0.000
1627808073.028,-28.320,-20.508,-18.066,-30.762,0.000
1627808073.032,6.836,-13.672,-14.160,23.438,0.000
1627808073.035,-1.953,-12.695,-15.137,25.391,0.000
1627808073.039,-35.645,-24.414,-18.066,-26.367,0.000
1627808073.043,-27.832,-20.020,-13.672,-30.273,0.000
1627808073.047,5.859,-6.348,-13.672,15.625,0.000
1627808073.051,10.254,-4.883,-14.648,26.855,0.000
1627808073.055,-25.879,-12.207,-12.207,-20.996,0.000
1627808073.059,-48.340,-17.090,-15.137,-51.270,0.000
1627808073.063,-17.578,-18.555,-15.625,-10.254,0.000
1627808073.067,8.301,-20.508,-14.160,18.555,0.000
1627808073.071,-21.484,-27.344,-18.555,-12.207,0.000
1627808073.075,-46.387,-24.414,-18.066,-40.527,0.000
1627808073.078,-17.090,-16.602,-12.207,-17.578,0.000
1627808073.082,13.184,-14.160,-6.348,23.926,0.000
1627808073.086,-7.812,-16.602,-14.160,9.277,0.000
1627808073.090,-51.270,-27.832,-23.926,-45.898,0.000
1627808073.094,-47.852,-28.320,-17.090,-44.434,0.000
1627808073.098,-6.348,-16.602,-7.812,7.324,0.000
1627808073.102,-7.324,-16.602,-10.254,3.418,0.000
1627808073.106,-38.086,-25.879,-14.648,-41.504,0.000
1627808073.110,-35.645,-20.996,-13.184,-46.387,0.000
1627808073.114,0.488,-16.113,-9.766,-2.930,0.000
1627808073.118,11.719,-19.043,-12.695,16.602,0.000
1627808073.121,-17.090,-21.484,-15.137,-21.973,0.000
1627808073.125,-33.691,-22.461,-12.695,-45.898,0.000
1627808073.129,-6.836,-18.066,-9.766,-10.742,0.000
1627808073.133,10.742,-17.578,-8.301,21.973,0.000
1627808073.137,-18.555,-19.531,-9.277,-2.930,0.000
1627808073.141,-49.316,-20.996,-13.672,-44.922,0.000
1627808073.145,-26.855,-18.555,-14.160,-26.367,0.000
1627808073.149,4.883,-18.555,-13.672,16.602,0.000
1627808073.153,-13.672,-20.020,-13.672,3.906,0.000
1627808073.157,-41.504,-19.043,-13.184,-38.574,0.000
1627808073.160,-34.180,-20.020,-11.719,-34.180,0.000
1627808073.164,-5.371,-21.484,-12.695,7.812,0.000
1627808073.168,-3.906,-17.578,-11.230,11.719,0.000
1627808073.172,-35.645,-18.555,-17.090,-30.273,0.000
1627808073.176,-49.316,-20.508,-20.996,-52.246,0.000
1627808073.180,-21.484,-20.020,-15.625,-14.160,0.000
1627808073.184,-7.812,-16.602,-15.137,7.324,0.000
1627808073.188,-33.691,-11.230,-17.090,-30.273,0.000
1627808073.192,-45.410,-9.766,-18.555,-58.594,0.000
1627808073.196,-16.602,-9.766,-20.508,-26.367,0.000
1627808073.200,4.395,-11.719,-20.508,7.324,0.000
1627808073.203,-22.949,-18.555,-21.973,-20.996,0.000
1627808073.207,-50.781,-20.020,-23.926,-53.223,0.000
1627808073.211,-29.785,-18.066,-20.020,-25.879,0.000
1627808073.215,1.465,-16.602,-11.719,19.043,0.000
1627808073.219,-13.672,-14.648,-14.160,6.836,0.000
1627808073.223,-45.410,-12.695,-20.020,-35.645,0.000
1627808073.227,-39.062,-14.160,-19.531,-37.598,0.000
1627808073.231,-0.488,-11.719,-13.672,4.395,0.000
1627808073.235,5.859,-5.859,-9.277,17.578,0.000
1627808073.239,-40.039,-14.160,-12.695,-27.344,0.000
1627808073.243,-54.199,-18.555,-18.555,-44.922,0.000
1627808073.246,-15.137,-12.695,-15.625,-6.348,0.000
1627808073.250,9.277,-11.719,-12.695,19.531,0.000
1627808073.254,-16.602,-20.020,-20.996,-13.184,0.000
1627808073.258,-41.504,-25.879,-29.297,-55.176,0.000
1627808073.262,-17.578,-19.043,-27.344,-31.250,0.000
1627808073.266,12.695,-8.301,-23.926,14.160,0.000
1627808073.270,-10.742,-7.324,-23.926,-8.301,0.000
1627808073.274,-52.734,-20.020,-26.855,-60.059,0.000
1627808073.278,-41.016,-22.461,-23.438,-42.969,0.000
1627808073.282,1.465,-7.324,-14.648,10.254,0.000
1627808073.286,-7.324,-5.371,-18.066,3.906,0.000
1627808073.289,-45.898,-23.438,-21.973,-46.875,0.000
1627808073.293,-41.504,-25.879,-16.602,-56.641,0.000
1627808073.297,0.977,-10.742,-11.719,-9.766,0.000
1627808073.301,11.230,-8.301,-11.230,2.930,0.000
1627808073.305,-25.879,-19.043,-13.672,-44.434,0.000
1627808073.309,-41.992,-19.531,-15.137,-67.383,0.000
1627808073.313,-10.742,-16.113,-14.160,-23.438,0.000
1627808073.317,13.672,-17.090,-10.742,19.531,0.000
1627808073.321,-17.578,-27.344,-15.137,-8.301,0.000
1627808073.325,-52.734,-27.344,-16.602,-41.992,0.000
1627808073.328,-31.738,-13.672,-6.348,-11.719,0.000
1627808073.332,-3.906,-11.230,-6.348,22.461,0.000
1627808073.336,-22.949,-18.555,-14.160,-2.930,0.000
1627808073.340,-47.363,-12.695,-15.625,-44.434,0.000
1627808073.344,-27.832,-4.883,-11.719,-34.180,0.000
1627808073.348,8.301,-8.301,-5.371,10.254,0.000
1627808073.352,-2.930,-14.160,-13.672,6.836,0.000
1627808073.356,-41.504,-20.508,-24.902,-41.016,0.000
1627808073.360,-46.875,-25.391,-23.926,-54.199,0.000
1627808073.364,-12.207,-24.902,-16.113,-13.672,0.000
1627808073.368,2.441,-20.996,-14.648,13.184,0.000
1627808073.371,-24.414,-21.973,-16.113,-19.531,0.000
1627808073.375,-51.270,-25.391,-19.043,-55.664,0.000
1627808073.379,-22.949,-15.625,-18.066,-23.438,0.000
1627808073.383,6.836,-13.184,-12.695,15.137,0.000
1627808073.387,-24.414,-24.414,-11.719,-20.020,0.000
1627808073.391,-57.129,-26.855,-14.160,-59.570,0.000
1627808073.395,-33.203,-19.531,-15.625,-34.668,0.000
1627808073.399,-2.441,-14.648,-13.184,7.324,0.000
1627808073.403,-20.996,-18.066,-22.461,-13.672,0.000
1627808073.407,-56.152,-23.438,-27.832,-59.082,0.000
1627808073.411,-48.828,-19.043,-20.996,-48.340,0.000
1627808073.414,-8.301,-12.695,-15.625,-5.859,0.000
1627808073.418,-3.906,-20.996,-18.555,-2.930,0.000
1627808073.422,-41.016,-25.879,-18.555,-41.504,0.000
1627808073.426,-48.340,-20.508,-17.578,-53.223,0.000
1627808073.430,-16.113,-21.973,-18.555,-11.230,0.000
1627808073.434,1.465,-19.043,-14.160,14.160,0.000
1627808073.438,-25.879,-23.926,-16.602,-28.320,0.000
1627808073.442,-46.875,-24.414,-20.996,-61.035,0.000
1627808073.446,-10.254,-12.207,-14.160,-21.484,0.000
1627808073.450,20.020,-10.742,-9.766,15.137,0.000
1627808073.454,-10.254,-15.137,-17.578,-13.672,0.000
1627808073.457,-41.504,-21.973,-16.602,-52.246,0.000
1627808073.461,-22.461,-22.461,-10.742,-27.344,0.000
1627808073.465,9.766,-14.160,-8.789,18.555,0.000
1627808073.469,0.000,-13.672,-10.742,5.371,0.000
1627808073.473,-30.273,-11.719,-11.719,-38.574,0.000
1627808073.477,-23.438,-6.348,-12.695,-41.016,0.000
1627808073.481,6.836,-10.254,-13.672,0.000,0.000
1627808073.485,1.465,-16.602,-16.602,8.789,0.000
1627808073.489,-35.156,-20.508,-18.555,-32.227,0.000
1627808073.493,-41.504,-20.020,-16.113,-54.199,0.000
1627808073.496,-1.953,-15.137,-8.301,-10.254,0.000
1627808073.500,16.113,-11.719,-7.812,23.926,0.000
1627808073.504,-17.578,-20.508,-18.066,-20.020,0.000
1627808073.508,-44.434,-23.438,-20.020,-60.547,0.000
1627808073.512,-22.461,-16.113,-19.043,-35.156,0.000
1627808073.516,3.906,-11.719,-18.066,1.953,0.000
1627808073.520,-20.508,-14.160,-18.555,-16.113,0.000
1627808073.524,-57.129,-16.602,-21.973,-59.570,0.000
1627808073.528,-33.691,-12.207,-17.578,-43.945,0.000
1627808073.532,7.812,-11.230,-13.184,6.836,0.000
1627808073.536,-1.953,-20.020,-13.672,4.883,0.000
1627808073.539,-46.875,-30.762,-17.578,-41.504,0.000
1627808073.543,-50.293,-32.227,-20.020,-49.316,0.000
1627808073.547,-6.348,-21.973,-16.602,-2.930,0.000
1627808073.551,6.836,-15.625,-14.648,13.672,0.000
1627808073.555,-27.344,-18.555,-19.043,-28.809,0.000
1627808073.559,-44.922,-18.066,-22.949,-51.758,0.000
1627808073.563,-11.230,-14.160,-18.555,-10.254,0.000
1627808073.567,13.672,-8.789,-16.113,22.461,0.000
1627808073.571,-14.648,-17.578,-17.090,-11.230,0.000
1627808073.575,-41.992,-27.832,-16.113,-47.852,0.000
1627808073.579,-22.949,-26.855,-18.066,-28.320,0.000
1627808073.582,3.906,-23.926,-18.066,6.348,0.000
1627808073.586,-15.625,-28.320,-17.578,-6.348,0.000
1627808073.590,-48.340,-29.785,-20.508,-50.293,0.000
1627808073.594,-39.062,-22.461,-18.066,-47.852,0.000
1627808073.598,-5.371,-20.020,-13.672,-3.906,0.000
1627808073.602,-8.301,-22.949,-14.648,4.395,0.000
1627808073.606,-42.969,-24.414,-17.578,-36.621,0.000
1627808073.610,-50.781,-23.438,-20.996,-53.711,0.000
1627808073.614,-9.766,-17.578,-17.578,-8.301,0.000
1627808073.618,9.766,-12.695,-13.672,21.973,0.000
1627808073.621,-24.902,-21.973,-21.973,-20.996,0.000
1627808073.625,-48.340,-32.227,-23.438,-57.129,0.000
1627808073.629,-18.066,-28.809,-14.648,-21.484,0.000
1627808073.633,3.418,-23.926,-15.625,19.043,0.000
1627808073.637,-21.973,-25.391,-21.484,-5.859,0.000
1627808073.641,-50.781,-27.344,-25.391,-51.270,0.000
1627808073.645,-37.598,-28.320,-25.391,-35.645,0.000
1627808073.649,-4.883,-26.367,-20.020,10.742,0.000
1627808073.653,-14.160,-18.066,-18.555,4.395,0.000
1627808073.657,-49.316,-18.066,-22.461,-41.016,0.000
1627808073.661,-42.969,-18.066,-19.531,-42.969,0.000
1627808073.664,-4.395,-21.484,-16.113,2.441,0.000
1627808073.668,3.418,-20.996,-18.555,12.695,0.000
1627808073.672,-28.320,-17.578,-22.949,-27.832,0.000
1627808073.676,-42.480,-19.043,-24.414,-45.410,0.000
1627808073.680,-8.301,-20.020,-22.949,-7.324,0.000
1627808073.684,9.277,-16.113,-15.137,18.555,0.000
1627808073.688,-23.438,-18.066,-20.020,-20.020,0.000
1627808073.692,-47.363,-24.414,-22.949,-52.734,0.000
1627808073.696,-14.648,-21.484,-17.090,-19.043,0.000
1627808073.700,12.695,-16.602,-17.578,23.438,0.000
1627808073.704,-16.602,-18.066,-19.531,4.395,0.000
1627808073.707,-50.781,-18.066,-20.020,-37.598,0.000
1627808073.711,-38.086,-21.484,-21.973,-27.344,0.000
1627808073.715,1.465,-18.066,-13.672,17.090,0.000
1627808073.719,-0.977,-18.555,-14.648,11.230,0.000
1627808073.723,-45.898,-32.227,-20.508,-42.969,0.000
1627808073.727,-50.293,-32.715,-15.137,-50.781,0.000
1627808073.731,-9.277,-24.902,-14.648,-5.371,0.000
1627808073.735,-3.418,-23.926,-14.160,9.766,0.000
1627808073.739,-45.898,-28.809,-20.508,-33.203,0.000
1627808073.743,-58.105,-34.180,-23.926,-59.082,0.000
1627808073.747,-21.973,-28.320,-15.625,-15.625,0.000
1627808073.750,0.000,-15.625,-9.277,22.949,0.000
1627808073.754,-24.414,-16.602,-16.113,-13.672,0.000
1627808073.758,-53.711,-25.391,-21.973,-55.176,0.000
1627808073.762,-24.414,-23.926,-15.625,-28.809,0.000
1627808073.766,7.324,-10.254,-11.230,12.695,0.000
1627808073.770,-13.672,-10.254,-16.113,-8.789,0.000
1627808073.774,-48.828,-22.461,-21.484,-55.176,0.000
1627808073.778,-39.062,-24.414,-19.531,-43.457,0.000
1627808073.782,-2.441,-25.879,-19.043,3.418,0.000
1627808073.786,-11.230,-22.461,-20.020,0.977,0.000
1627808073.789,-48.340,-24.414,-23.926,-52.246,0.000
1627808073.793,-48.828,-21.484,-22.461,-64.453,0.000
1627808073.797,-7.812,-8.301,-12.207,-11.719,0.000
1627808073.801,5.371,0.000,-13.184,8.789,0.000
1627808073.805,-30.273,-2.930,-20.020,-34.668,0.000
1627808073.809,-47.852,-18.066,-20.508,-63.965,0.000
1627808073.813,-15.137,-22.949,-16.113,-25.391,0.000
1627808073.817,8.789,-12.207,-12.695,14.648,0.000
1627808073.821,-16.113,-13.672,-14.648,-14.648,0.000
1627808073.825,-47.363,-14.648,-15.625,-59.082,0.000
1627808073.829,-26.367,-10.742,-12.207,-32.715,0.000
1627808073.832,10.742,-13.184,-14.648,4.395,0.000
1627808073.836,-4.883,-17.090,-18.555,-16.113,0.000
1627808073.840,-42.969,-20.508,-18.066,-53.223,0.000
1627808073.844,-35.645,-21.973,-18.555,-44.434,0.000
1627808073.848,2.930,-15.137,-16.602,0.488,0.000
1627808073.852,1.953,-17.090,-12.695,8.301,0.000
1627808073.856,-38.086,-28.320,-15.625,-37.109,0.000
1627808073.860,-48.828,-22.949,-17.578,-50.781,0.000
1627808073.864,-14.648,-17.578,-16.602,-9.766,0.000
1627808073.868,-3.906,-20.996,-14.648,6.348,0.000
1627808073.872,-40.039,-28.320,-19.043,-37.109,0.000
1627808073.875,-57.129,-26.855,-21.484,-62.012,0.000
1627808073.879,-28.320,-19.531,-19.043,-26.367,0.000
1627808073.883,-2.930,-21.973,-16.602,4.395,0.000
1627808073.887,-20.508,-20.996,-15.137,-18.066,0.000
1627808073.891,-44.434,-21.484,-20.508,-58.105,0.000
1627808073.895,-23.438,-15.625,-18.555,-44.922,0.000
1627808073.899,3.906,-11.719,-20.020,-3.906,0.000
1627808073.903,-15.625,-22.949,-25.391,-17.578,0.000
1627808073.907,-45.410,-24.414,-21.484,-59.570,0.000
1627808073.911,-38.574,-18.555,-14.648,-54.199,0.000
1627808073.914,-7.324,-21.484,-17.090,-10.254,0.000
1627808073.918,-7.812,-24.414,-19.531,-1.953,0.000
1627808073.922,-46.875,-22.949,-19.043,-45.410,0.000
1627808073.926,-61.523,-26.367,-20.996,-65.430,0.000
1627808073.930,-27.832,-29.297,-20.508,-22.461,0.000
1627808073.934,-13.184,-29.785,-15.625,4.883,0.000
1627808073.938,-39.062,-26.367,-18.066,-34.180,0.000
1627808073.942,-54.199,-17.578,-20.996,-64.453,0.000
1627808073.946,-26.367,-14.160,-18.066,-29.297,0.000
1627808073.950,5.859,-15.137,-15.137,11.719,0.000
1627808073.954,-15.625,-20.508,-17.578,-9.277,0.000
1627808073.957,-53.223,-25.391,-19.531,-56.152,0.000
1627808073.961,-34.180,-20.020,-16.113,-38.574,0.000
1627808073.965,4.883,-14.160,-15.137,12.207,0.000
1627808073.969,-10.742,-14.160,-17.090,0.977,0.000
1627808073.973,-52.246,-15.625,-22.461,-53.711,0.000
1627808073.977,-47.852,-16.113,-20.508,-56.641,0.000
1627808073.981,-14.648,-20.020,-14.648,-7.324,0.000
1627808073.985,-10.742,-16.113,-14.648,4.395,0.000
1627808073.989,-39.551,-14.648,-17.578,-32.715,0.000
1627808073.993,-45.410,-24.902,-16.602,-49.805,0.000
1627808073.997,-11.230,-18.555,-9.277,-6.836,0.000
1627808074.000,4.883,-17.090,-4.395,21.484,0.000
1627808074.004,-27.832,-23.926,-14.648,-21.484,0.000
1627808074.008,-56.152,-29.297,-20.996,-62.012,0.000
1627808074.012,-27.832,-21.973,-14.160,-29.785,0.000
1627808074.016,6.836,-13.184,-7.812,13.672,0.000
1627808074.020,-16.113,-14.648,-13.672,-9.766,0.000
1627808074.024,-49.805,-23.926,-20.508,-56.152,0.000
1627808074.028,-33.203,-21.973,-18.066,-42.480,0.000
1627808074.032,3.906,-12.207,-12.207,6.836,0.000
1627808074.036,-0.977,-9.766,-9.766,6.348,0.000
1627808074.040,-32.227,-16.602,-13.184,-38.574,0.000
1627808074.043,-33.691,-19.043,-12.207,-45.898,0.000
1627808074.047,-1.465,-9.766,-8.301,0.488,0.000
1627808074.051,-1.465,-17.090,-18.066,7.812,0.000
1627808074.055,-35.645,-26.855,-27.344,-40.527,0.000
1627808074.059,-46.387,-25.879,-25.391,-63.965,0.000
1627808074.063,-20.020,-20.996,-22.461,-25.391,0.000
1627808074.067,0.488,-20.996,-20.020,8.301,0.000
1627808074.071,-22.461,-24.902,-18.555,-21.973,0.000
1627808074.075,-48.828,-28.809,-18.555,-62.012,0.000
1627808074.079,-24.902,-20.020,-18.555,-31.738,0.000
1627808074.082,0.488,-10.742,-16.602,9.277,0.000
1627808074.086,-13.672,-20.996,-20.508,-7.324,0.000
1627808074.090,-42.969,-27.832,-23.438,-49.316,0.000
1627808074.094,-34.180,-29.785,-25.879,-51.270,0.000
1627808074.098,2.441,-27.344,-21.973,-4.883,0.000
1627808074.102,2.930,-20.020,-20.996,0.488,0.000
1627808074.106,-38.086,-27.344,-27.344,-52.734,0.000
1627808074.110,-49.805,-29.297,-27.832,-70.312,0.000
1627808074.114,-11.230,-16.113,-22.461,-22.461,0.000
1627808074.118,1.953,-21.484,-20.020,-0.488,0.000
1627808074.122,-30.273,-29.297,-22.949,-35.156,0.000
1627808074.125,-53.711,-26.855,-25.879,-63.965,0.000
1627808074.129,-27.832,-21.484,-22.949,-34.180,0.000
1627808074.133,-8.301,-20.020,-22.949,1.465,0.000
1627808074.137,-32.227,-22.949,-25.879,-18.555,0.000
1627808074.141,-59.570,-18.066,-25.391,-53.711,0.000
1627808074.145,-36.621,-7.324,-19.043,-29.297,0.000
1627808074.149,-3.906,-11.230,-14.160,13.672,0.000
1627808074.153,-22.949,-21.973,-13.672,0.000,0.000
1627808074.157,-53.223,-18.555,-17.578,-41.504,0.000
1627808074.161,-40.527,-12.695,-19.531,-42.969,0.000
1627808074.165,-4.395,-17.090,-18.066,2.930,0.000
1627808074.168,-3.906,-17.578,-16.113,9.766,0.000
1627808074.172,-37.598,-14.648,-15.625,-33.203,0.000
1627808074.176,-41.016,-14.648,-13.184,-48.828,0.000
1627808074.180,-2.441,-9.766,-13.672,-7.812,0.000
1627808074.184,8.301,-11.230,-17.090,14.160,0.000
1627808074.188,-25.391,-24.902,-26.367,-22.461,0.000
1627808074.192,-44.434,-27.344,-34.180,-52.246,0.000
1627808074.196,-14.160,-22.461,-26.367,-20.508,0.000
1627808074.200,15.137,-17.578,-16.113,23.926,0.000
1627808074.204,-7.324,-11.230,-18.555,3.906,0.000
1627808074.208,-42.969,-16.602,-25.391,-47.852,0.000
1627808074.211,-32.715,-21.973,-24.414,-44.922,0.000
1627808074.215,4.395,-17.090,-17.090,-2.930,0.000
1627808074.219,-0.488,-9.766,-18.066,-6.348,0.000
1627808074.223,-31.738,-13.672,-23.926,-49.805,0.000
1627808074.227,-27.344,-17.578,-21.484,-49.805,0.000
1627808074.231,3.906,-21.484,-17.090,-7.324,0.000
1627808074.235,-0.977,-27.344,-18.555,5.859,0.000
1627808074.239,-35.645,-25.879,-18.555,-29.785,0.000
1627808074.243,-49.316,-21.484,-16.602,-48.340,0.000
1627808074.247,-28.809,-19.531,-12.207,-2.930,0.000
1627808074.250,-18.066,-20.020,-7.812,23.926,0.000
1627808074.254,-46.387,-19.531,-10.742,-13.184,0.000
1627808074.258,-65.918,-20.996,-18.066,-50.293,0.000
1627808074.262,-42.480,-20.996,-15.137,-28.320,0.000
1627808074.266,-4.395,-13.184,-7.812,16.113,0.000
1627808074.270,-18.066,-7.812,-13.184,-4.395,0.000
1627808074.274,-54.199,-9.277,-18.555,-52.734,0.000
1627808074.278,-41.504,-8.789,-12.207,-42.480,0.000
1627808074.282,-2.441,-12.695,-11.230,-1.953,0.000
1627808074.286,0.488,-14.648,-11.719,1.465,0.000
1627808074.290,-36.621,-16.113,-15.137,-43.457,0.000
1627808074.293,-40.527,-14.160,-20.508,-57.617,0.000
1627808074.297,-2.441,-13.184,-18.555,-12.695,0.000
1627808074.301,10.254,-10.742,-18.555,11.719,0.000
1627808074.305,-21.973,-10.254,-24.902,-22.461,0.000
1627808074.309,-39.062,-11.719,-25.391,-51.758,0.000
1627808074.313,-3.418,-1.953,-20.020,-21.484,0.000
1627808074.317,16.113,-1.465,-20.996,11.230,0.000
1627808074.321,-21.973,-17.578,-29.785,-20.508,0.000
1627808074.325,-48.828,-21.484,-29.785,-61.523,0.000
1627808074.329,-28.320,-15.137,-24.414,-38.086,0.000
1627808074.333,-3.418,-10.254,-20.508,6.348,0.000
1627808074.336,-14.648,-14.648,-20.996,-10.742,0.000
1627808074.340,-39.551,-20.508,-24.414,-55.176,0.000
1627808074.344,-29.785,-17.090,-20.508,-53.223,0.000
1627808074.348,0.977,-8.789,-15.625,-5.859,0.000
1627808074.352,-1.953,-12.207,-17.090,2.441,0.000
1627808074.356,-36.133,-18.066,-23.438,-41.016,0.000
1627808074.360,-37.598,-12.207,-25.391,-53.711,0.000
1627808074.364,1.953,-10.254,-18.066,-5.859,0.000
1627808074.368,15.625,-16.113,-18.066,20.996,0.000
1627808074.372,-19.531,-17.090,-27.832,-21.484,0.000
1627808074.375,-41.016,-21.973,-32.715,-59.570,0.000
1627808074.379,-15.137,-20.508,-32.227,-29.297,0.000
1627808074.383,13.184,-12.695,-26.855,10.254,0.000
1627808074.387,-13.184,-15.625,-25.391,-15.137,0.000
1627808074.391,-49.316,-19.531,-30.273,-56.152,0.000
1627808074.395,-27.832,-21.973,-27.832,-38.574,0.000
1627808074.399,10.254,-20.996,-18.555,9.766,0.000
1627808074.403,-2.930,-18.555,-16.113,4.395,0.000
1627808074.407,-41.504,-25.879,-19.043,-40.527,0.000
1627808074.411,-36.621,-22.461,-15.625,-42.969,0.000
1627808074.415,2.930,-8.789,-9.766,1.465,0.000
1627808074.418,3.906,-14.160,-16.602,7.324,0.000
1627808074.422,-36.621,-26.855,-22.461,-38.086,0.000
1627808074.426,-47.852,-20.996,-15.137,-55.664,0.000
1627808074.430,-11.230,-9.277,-6.348,-13.672,0.000
1627808074.434,3.906,-14.648,-8.301,9.277,0.000
1627808074.438,-29.297,-24.414,-14.648,-27.344,0.000
1627808074.442,-40.039,-20.020,-11.230,-51.758,0.000
1627808074.446,-13.672,-21.484,-12.695,-24.414,0.000
1627808074.450,0.977,-24.902,-17.090,7.812,0.000
1627808074.454,-20.508,-18.555,-16.113,-15.625,0.000
1627808074.458,-54.688,-21.484,-20.508,-62.988,0.000
1627808074.461,-44.434,-31.250,-21.973,-52.246,0.000
1627808074.465,-6.836,-26.855,-20.020,2.441,0.000
1627808074.469,-12.207,-26.855,-18.555,2.930,0.000
1627808074.473,-42.480,-26.855,-21.973,-40.039,0.000
1627808074.477,-33.203,-21.484,-24.414,-39.551,0.000
1627808074.481,-1.953,-19.043,-18.066,-0.977,0.000
1627808074.485,-7.324,-19.531,-16.602,1.465,0.000
1627808074.489,-44.434,-25.391,-22.461,-39.062,0.000
1627808074.493,-61.523,-32.227,-24.414,-63.965,0.000
1627808074.497,-20.996,-21.484,-17.090,-22.949,0.000
1627808074.501,3.906,-14.648,-16.602,12.207,0.000
1627808074.504,-30.762,-22.461,-22.461,-26.367,0.000
1627808074.508,-51.758,-21.973,-23.438,-62.012,0.000
1627808074.512,-16.602,-12.207,-20.996,-30.273,0.000
1627808074.516,15.137,-11.719,-19.531,17.578,0.000
1627808074.520,-3.418,-19.531,-18.555,2.441,0.000
1627808074.524,-36.133,-24.902,-23.438,-40.039,0.000
1627808074.528,-23.926,-22.949,-23.438,-31.738,0.000
1627808074.532,12.695,-16.113,-15.137,14.648,0.000
1627808074.536,4.883,-12.207,-18.066,13.184,0.000
1627808074.540,-34.180,-16.602,-19.531,-38.086,0.000
1627808074.543,-38.086,-13.672,-18.555,-52.734,0.000
1627808074.547,-6.348,-13.184,-20.996,-8.789,0.000
1627808074.551,0.488,-19.043,-24.414,10.254,0.000
1627808074.555,-31.250,-19.043,-26.367,-32.715,0.000
1627808074.559,-44.922,-21.973,-23.438,-57.617,0.000
1627808074.563,-18.066,-23.438,-19.043,-16.602,0.000
1627808074.567,0.488,-18.066,-19.043,15.625,0.000
1627808074.571,-30.762,-21.484,-20.508,-15.137,0.000
1627808074.575,-59.082,-25.391,-20.508,-52.734,0.000
1627808074.579,-36.133,-17.090,-20.508,-32.715,0.000
1627808074.583,0.488,-12.207,-14.160,8.301,0.000
1627808074.586,-12.695,-18.066,-14.648,-5.371,0.000
1627808074.590,-50.781,-24.414,-22.949,-51.758,0.000
1627808074.594,-45.898,-25.391,-19.531,-46.387,0.000
1627808074.598,-7.324,-16.602,-12.695,3.418,0.000
1627808074.602,-4.395,-17.090,-15.137,8.301,0.000
1627808074.606,-41.016,-27.832,-21.973,-35.645,0.000
1627808074.610,-51.758,-32.227,-25.879,-51.758,0.000
1627808074.614,-10.254,-19.043,-22.461,-12.207,0.000
1627808074.618,3.906,-15.625,-21.484,12.207,0.000
1627808074.622,-28.809,-19.043,-23.926,-22.461,0.000
1627808074.626,-47.852,-15.137,-27.832,-53.711,0.000
1627808074.629,-19.043,-19.531,-25.879,-22.949,0.000
1627808074.633,5.371,-24.414,-21.484,12.207,0.000
1627808074.637,-21.484,-19.531,-22.949,-13.672,0.000
1627808074.641,-52.734,-17.090,-26.367,-56.641,0.000
1627808074.645,-29.785,-17.090,-25.879,-39.551,0.000
1627808074.649,5.371,-14.648,-19.531,4.883,0.000
1627808074.653,-14.648,-15.137,-17.578,-7.812,0.000
1627808074.657,-54.199,-17.090,-20.996,-51.270,0.000
1627808074.661,-47.852,-21.973,-19.043,-49.805,0.000
1627808074.665,-4.883,-22.461,-11.719,2.930,0.000
1627808074.668,-1.953,-20.020,-13.672,15.137,0.000
1627808074.672,-37.109,-21.973,-20.020,-32.227,0.000
1627808074.676,-40.527,-18.555,-16.602,-48.828,0.000
1627808074.680,-8.301,-18.066,-13.672,-7.324,0.000
1627808074.684,7.812,-11.719,-9.277,19.531,0.000
1627808074.688,-27.832,-18.066,-14.648,-21.973,0.000
1627808074.692,-56.641,-25.391,-18.066,-59.570,0.000
1627808074.696,-25.391,-18.555,-14.160,-28.320,0.000
1627808074.700,8.789,-14.160,-18.066,15.137,0.000
1627808074.704,-10.254,-7.812,-18.555,-1.465,0.000
1627808074.708,-45.898,-8.301,-16.113,-44.434,0.000
1627808074.711,-30.273,-9.277,-16.602,-30.273,0.000
1627808074.715,2.930,-10.742,-14.648,11.230,0.000
1627808074.719,-7.812,-17.090,-13.672,2.930,0.000
1627808074.723,-36.621,-21.484,-17.090,-42.480,0.000
1627808074.727,-34.668,-19.043,-17.578,-48.340,0.000
1627808074.731,-0.488,-16.602,-13.672,1.465,0.000
1627808074.735,4.883,-17.090,-14.160,14.648,0.000
1627808074.739,-26.367,-15.625,-17.578,-26.855,0.000
1627808074.743,-40.527,-20.996,-15.625,-49.316,0.000
1627808074.747,-12.207,-26.367,-15.137,-18.555,0.000
1627808074.751,10.742,-26.367,-13.184,6.348,0.000
1627808074.754,-19.531,-23.926,-12.207,-22.949,0.000
1627808074.758,-50.781,-23.438,-15.625,-54.199,0.000
1627808074.762,-21.973,-20.508,-15.137,-23.438,0.000
1627808074.766,4.883,-16.602,-10.254,11.230,0.000
1627808074.770,-18.066,-22.949,-10.742,-13.184,0.000
1627808074.774,-49.316,-30.762,-16.113,-53.711,0.000
1627808074.778,-36.133,-24.902,-14.648,-42.480,0.000
1627808074.782,0.977,-17.578,-13.672,1.953,0.000
1627808074.786,-3.418,-17.090,-16.113,2.441,0.000
1627808074.790,-39.551,-23.438,-20.508,-45.898,0.000
1627808074.794,-37.109,-22.461,-21.484,-53.223,0.000
1627808074.797,7.812,-9.277,-17.090,0.000,0.000
1627808074.801,17.090,-10.254,-16.602,17.578,0.000
1627808074.805,-21.484,-20.020,-20.020,-27.344,0.000
1627808074.809,-37.109,-17.578,-19.531,-52.246,0.000
1627808074.813,1.465,-9.277,-13.184,-10.742,0.000
1627808074.817,20.996,-13.672,-12.207,21.484,0.000
1627808074.821,-15.137,-20.996,-22.949,-20.508,0.000
1627808074.825,-48.828,-20.996,-27.832,-66.895,0.000
1627808074.829,-29.785,-15.137,-19.531,-44.434,0.000
1627808074.833,8.789,-8.789,-15.137,3.418,0.000
1627808074.836,0.488,-12.207,-18.555,-0.488,0.000
1627808074.840,-37.598,-20.020,-24.414,-44.922,0.000
1627808074.844,-35.156,-23.438,-22.461,-39.551,0.000
1627808074.848,4.395,-16.602,-8.789,15.137,0.000
1627808074.852,0.977,-13.184,-10.742,15.137,0.000
1627808074.856,-38.574,-19.043,-21.973,-38.086,0.000
1627808074.860,-38.086,-17.578,-20.996,-53.711,0.000
1627808074.864,-9.277,-20.020,-18.555,-16.602,0.000
1627808074.868,0.000,-18.066,-17.578,9.766,0.000
1627808074.872,-28.320,-14.160,-19.531,-24.902,0.000
1627808074.876,-45.410,-14.160,-23.438,-56.152,0.000
1627808074.879,-15.625,-3.418,-22.949,-20.996,0.000
1627808074.883,1.465,-6.348,-22.949,10.254,0.000
1627808074.887,-20.020,-14.648,-20.508,-18.555,0.000
1627808074.891,-41.992,-10.254,-20.020,-60.059,0.000
1627808074.895,-32.227,-12.207,-16.602,-43.457,0.000
1627808074.899,-6.348,-19.531,-15.137,0.488,0.000
1627808074.903,-11.719,-17.578,-17.090,-3.906,0.000
1627808074.907,-41.504,-14.160,-20.996,-47.852,0.000
1627808074.911,-41.504,-14.648,-21.484,-53.223,0.000
1627808074.915,-5.371,-12.695,-16.602,-9.277,0.000
1627808074.919,3.418,-10.254,-10.742,3.418,0.000
1627808074.922,-33.691,-14.648,-12.695,-38.086,0.000
1627808074.926,-39.062,-10.254,-15.137,-53.711,0.000
1627808074.930,-8.301,-5.859,-17.578,-12.695,0.000
1627808074.934,0.977,-5.371,-13.672,12.695,0.000
1627808074.938,-27.832,-15.137,-15.137,-24.902,0.000
1627808074.942,-56.641,-28.809,-21.484,-63.477,0.000
1627808074.946,-26.367,-17.578,-15.625,-31.738,0.000
1627808074.950,8.789,-9.277,-9.277,14.160,0.000
1627808074.954,-17.090,-20.508,-14.648,-9.766,0.000
1627808074.958,-53.711,-20.508,-22.461,-54.688,0.000
1627808074.961,-41.016,-16.113,-20.508,-41.016,0.000
1627808074.965,-3.418,-15.137,-14.648,2.441,0.000
1627808074.969,-10.254,-11.719,-18.555,1.953,0.000
1627808074.973,-45.410,-9.766,-19.531,-39.062,0.000
1627808074.977,-40.527,-14.648,-18.066,-45.410,0.000
1627808074.981,-6.836,-19.043,-14.160,-4.883,0.000
1627808074.985,0.977,-13.184,-12.695,13.672,0.000
1627808074.989,-32.715,-16.602,-18.066,-29.297,0.000
1627808074.993,-50.293,-19.531,-17.090,-56.641,0.000
1627808074.997,-20.020,-10.254,-15.137,-21.484,0.000
1627808075.001,-2.930,-12.695,-16.113,3.906,0.000
1627808075.004,-25.391,-11.230,-13.672,-19.531,0.000
1627808075.008,-51.758,-17.090,-15.137,-53.223,0.000
1627808075.012,-38.086,-24.414,-15.625,-34.180,0.000
1627808075.016,-2.930,-12.207,-10.254,14.648,0.000
1627808075.020,-12.695,-6.348,-11.230,-1.465,0.000
1627808075.024,-49.805,-15.625,-19.043,-55.664,0.000
1627808075.028,-39.062,-22.949,-22.461,-47.852,0.000
1627808075.032,-1.465,-18.066,-15.137,1.953,0.000
1627808075.036,-2.930,-19.043,-12.207,5.371,0.000
1627808075.040,-38.086,-22.949,-18.555,-33.691,0.000
1627808075.044,-39.551,-19.531,-19.531,-43.457,0.000
1627808075.047,3.418,-13.672,-15.625,0.000,0.000
1627808075.051,16.602,-11.230,-11.719,20.020,0.000
1627808075.055,-11.719,-17.090,-17.090,-20.020,0.000
1627808075.059,-28.320,-18.555,-18.066,-45.898,0.000
1627808075.063,1.465,-9.277,-9.277,-7.812,0.000
1627808075.067,24.902,-0.488,-14.648,24.414,0.000
1627808075.071,-6.348,-4.395,-19.043,-7.812,0.000
1627808075.075,-28.809,-14.648,-19.043,-43.457,0.000
1627808075.079,-8.301,-14.160,-20.996,-20.020,0.000
1627808075.083,19.043,-10.742,-20.508,19.043,0.000
1627808075.087,-0.488,-13.672,-22.949,-0.488,0.000
1627808075.090,-38.086,-20.508,-29.297,-47.852,0.000
1627808075.094,-33.691,-17.578,-24.902,-44.922,0.000
1627808075.098,0.000,-10.742,-19.043,-0.977,0.000
1627808075.102,-7.324,-16.602,-20.020,8.301,0.000
1627808075.106,-46.875,-24.902,-25.391,-37.109,0.000
1627808075.110,-48.340,-22.949,-25.879,-59.082,0.000
1627808075.114,-9.766,-13.672,-13.672,-13.672,0.000
1627808075.118,3.906,-9.766,-10.742,10.742,0.000
1627808075.122,-30.273,-14.648,-23.926,-26.855,0.000
1627808075.126,-59.570,-18.066,-30.762,-56.641,0.000
1627808075.129,-33.203,-16.602,-24.414,-29.297,0.000
1627808075.133,-3.418,-18.066,-22.949,2.441,0.000
1627808075.137,-30.273,-24.414,-27.344,-24.414,0.000
1627808075.141,-62.012,-27.832,-26.855,-63.965,0.000
1627808075.145,-39.062,-18.066,-23.926,-39.551,0.000
1627808075.149,-1.465,-9.277,-19.531,10.254,0.000
1627808075.153,-10.742,-14.648,-17.090,-0.488,0.000
1627808075.157,-46.387,-18.066,-21.973,-50.293,0.000
1627808075.161,-36.621,-8.789,-18.555,-47.852,0.000
1627808075.165,-0.488,-12.695,-13.672,-1.953,0.000
1627808075.169,-0.977,-14.160,-13.184,5.859,0.000
1627808075.172,-34.180,-14.160,-15.625,-35.156,0.000
1627808075.176,-41.016,-17.090,-14.648,-49.805,0.000
1627808075.180,-2.441,-11.719,-9.277,-4.883,0.000
1627808075.184,9.277,-6.836,-7.324,25.391,0.000
1627808075.188,-20.508,-10.254,-10.254,-11.230,0.000
1627808075.192,-37.598,-14.160,-14.160,-55.176,0.000
1627808075.196,-10.254,-12.207,-12.695,-29.297,0.000
1627808075.200,20.508,-12.207,-9.277,11.719,0.000
1627808075.204,1.465,-15.137,-9.766,-7.812,0.000
1627808075.208,-26.855,-17.578,-13.672,-49.805,0.000
1627808075.212,-7.812,-11.719,-11.719,-32.715,0.000
1627808075.215,21.973,-7.812,-6.836,23.438,0.000
1627808075.219,3.418,-16.602,-7.812,24.902,0.000
1627808075.223,-41.992,-22.461,-16.602,-26.855,0.000
1627808075.227,-49.805,-20.020,-17.578,-36.133,0.000
1627808075.231,-11.230,-16.113,-8.301,14.160,0.000
1627808075.235,-8.301,-17.578,-5.371,28.320,0.000
1627808075.239,-48.340,-24.902,-10.742,-22.461,0.000
1627808075.243,-59.082,-21.484,-15.137,-49.316,0.000
1627808075.247,-24.414,-17.578,-12.207,-14.160,0.000
1627808075.251,-1.953,-19.043,-9.277,14.160,0.000
1627808075.254,-26.367,-21.973,-11.719,-16.602,0.000
1627808075.258,-52.246,-28.809,-19.043,-56.641,0.000
1627808075.262,-32.227,-27.832,-15.137,-36.621,0.000
1627808075.266,0.000,-16.113,-8.789,9.766,0.000
1627808075.270,-6.836,-12.695,-12.695,-0.488,0.000
1627808075.274,-40.527,-23.926,-22.461,-46.875,0.000
1627808075.278,-36.621,-22.949,-23.438,-37.598,0.000
1627808075.282,0.488,-18.066,-13.672,10.254,0.000
1627808075.286,-6.348,-21.973,-11.719,7.812,0.000
1627808075.290,-46.875,-23.438,-15.137,-37.109,0.000
1627808075.294,-44.922,-16.602,-15.625,-42.480,0.000
1627808075.297,-5.371,-12.695,-13.184,-1.953,0.000
1627808075.301,0.488,-16.113,-10.742,7.324,0.000
1627808075.305,-33.203,-20.508,-15.625,-32.227,0.000
1627808075.309,-47.363,-18.555,-17.578,-56.641,0.000
1627808075.313,-16.113,-16.602,-17.578,-20.508,0.000
1627808075.317,12.695,-13.672,-17.578,12.207,0.000
1627808075.321,-10.742,-19.531,-19.043,-17.578,0.000
1627808075.325,-44.922,-24.414,-22.461,-59.570,0.000
1627808075.329,-25.391,-21.973,-20.996,-42.480,0.000
1627808075.333,11.719,-18.066,-15.625,7.324,0.000
1627808075.337,-3.418,-19.531,-15.137,-6.348,0.000
1627808075.340,-40.527,-20.996,-16.602,-56.641,0.000
1627808075.344,-38.574,-19.531,-16.602,-49.316,0.000
1627808075.348,-7.812,-9.766,-13.184,5.371,0.000
1627808075.352,-3.906,-10.254,-11.719,15.625,0.000
1627808075.356,-30.273,-18.555,-11.230,-21.484,0.000
1627808075.360,-37.598,-15.625,-12.695,-37.598,0.000
1627808075.364,0.000,-5.859,-8.789,0.977,0.000
1627808075.368,17.090,-3.906,-2.930,27.344,0.000
1627808075.372,-15.625,-8.789,-6.348,-12.695,0.000
1627808075.376,-29.297,-12.207,-11.230,-46.387,0.000
1627808075.380,2.441,-9.766,-8.301,-13.184,0.000
1627808075.383,20.508,-11.719,-6.836,23.438,0.000
1627808075.387,-8.789,-20.508,-12.695,-0.977,0.000
1627808075.391,-41.504,-20.508,-15.625,-41.016,0.000
1627808075.395,-26.855,-13.672,-11.230,-25.879,0.000
1627808075.399,7.812,-6.836,-9.766,12.695,0.000
1627808075.403,0.977,-11.719,-11.719,1.465,0.000
1627808075.407,-38.086,-20.020,-19.531,-44.922,0.000
1627808075.411,-36.133,-25.391,-22.461,-49.805,0.000
1627808075.415,0.000,-25.391,-19.043,-2.930,0.000
1627808075.419,5.859,-14.160,-20.020,11.230,0.000
1627808075.422,-26.855,-14.648,-20.508,-31.250,0.000
1627808075.426,-40.039,-23.926,-20.996,-54.688,0.000
1627808075.430,-9.766,-25.879,-20.996,-20.996,0.000
1627808075.434,10.742,-22.949,-17.090,11.719,0.000
1627808075.438,-16.602,-23.438,-18.066,-18.555,0.000
1627808075.442,-41.992,-18.066,-16.602,-51.270,0.000
1627808075.446,-14.160,-12.695,-10.254,-15.625,0.000
1627808075.450,14.160,-9.766,-6.836,22.461,0.000
1627808075.454,-6.836,-7.324,-7.812,-0.977,0.000
1627808075.458,-43.945,-13.672,-18.555,-47.852,0.000
1627808075.462,-31.738,-18.555,-19.043,-35.645,0.000
1627808075.465,-1.953,-23.926,-16.113,8.301,0.000
1627808075.469,-12.207,-25.879,-19.043,3.418,0.000
1627808075.473,-36.133,-20.996,-19.531,-33.691,0.000
1627808075.477,-33.691,-19.531,-20.508,-39.062,0.000
1627808075.481,-0.488,-15.625,-19.531,0.000,0.000
1627808075.485,6.348,-17.578,-22.949,11.230,0.000
1627808075.489,-29.297,-20.996,-27.344,-32.227,0.000
1627808075.493,-45.898,-23.438,-32.227,-57.129,0.000
1627808075.497,-17.090,-22.949,-32.715,-23.438,0.000
1627808075.501,-1.465,-24.414,-28.320,6.836,0.000
1627808075.505,-27.344,-27.832,-30.762,-23.438,0.000
1627808075.508,-45.410,-23.438,-27.832,-57.129,0.000
1627808075.512,-23.438,-19.531,-20.020,-30.762,0.000
1627808075.516,4.395,-20.020,-18.555,8.301,0.000
1627808075.520,-9.766,-20.996,-14.160,-10.254,0.000
1627808075.524,-47.852,-26.855,-15.137,-57.617,0.000
1627808075.528,-36.621,-20.020,-16.602,-47.363,0.000
1627808075.532,2.441,-10.742,-13.672,3.418,0.000
1627808075.536,1.465,-12.207,-16.113,4.883,0.000
1627808075.540,-28.320,-13.184,-15.625,-36.133,0.000
1627808075.544,-29.297,-15.625,-14.160,-43.945,0.000
1627808075.547,4.883,-15.625,-18.066,-3.906,0.000
1627808075.551,12.207,-10.742,-17.090,17.090,0.000
1627808075.555,-26.367,-14.648,-19.531,-19.043,0.000
1627808075.559,-51.270,-21.973,-22.461,-52.734,0.000
1627808075.563,-20.020,-16.602,-16.113,-16.602,0.000
1627808075.567,8.789,-13.672,-13.672,23.926,0.000
1627808075.571,-20.996,-20.508,-19.531,-7.812,0.000
1627808075.575,-49.316,-22.949,-23.438,-47.852,0.000
1627808075.579,-24.902,-20.508,-17.578,-21.484,0.000
1627808075.583,15.625,-3.906,-6.348,30.273,0.000
1627808075.587,-1.465,-9.766,-13.184,12.207,0.000
1627808075.590,-41.016,-18.066,-24.902,-40.039,0.000
1627808075.594,-29.785,-14.160,-20.996,-34.668,0.000
1627808075.598,6.836,-20.020,-12.207,14.160,0.000
1627808075.602,2.441,-24.902,-9.766,17.578,0.000
1627808075.606,-33.691,-23.926,-14.648,-30.273,0.000
1627808075.610,-41.016,-24.414,-15.625,-52.246,0.000
1627808075.614,-5.371,-17.578,-9.766,-13.184,0.000
1627808075.618,11.230,-12.207,-10.254,10.742,0.000
1627808075.622,-20.508,-20.508,-14.160,-25.391,0.000
1627808075.626,-42.969,-21.484,-20.020,-51.758,0.000
1627808075.630,-15.625,-12.695,-22.949,-20.508,0.000
1627808075.633,15.137,-6.348,-15.625,20.508,0.000
1627808075.637,-12.207,-15.137,-18.066,-5.859,0.000
1627808075.641,-46.875,-22.949,-22.949,-52.734,0.000
1627808075.645,-29.785,-20.508,-20.020,-36.133,0.000
1627808075.649,1.465,-18.555,-14.648,9.277,0.000
1627808075.653,-16.113,-17.578,-18.555,2.441,0.000
1627808075.657,-49.316,-23.926,-24.414,-46.875,0.000
1627808075.661,-40.527,-26.855,-20.996,-51.270,0.000
1627808075.665,-7.812,-25.391,-17.090,-5.371,0.000
1627808075.669,-1.953,-20.508,-13.184,9.277,0.000
1627808075.673,-36.133,-21.973,-14.160,-34.180,0.000
1627808075.676,-48.828,-21.484,-11.719,-54.199,0.000
1627808075.680,-13.184,-17.090,-6.836,-9.766,0.000
1627808075.684,5.371,-18.066,-10.254,22.461,0.000
1627808075.688,-25.879,-23.926,-17.578,-12.695,0.000
1627808075.692,-53.223,-27.344,-21.484,-52.246,0.000
1627808075.696,-33.691,-26.367,-21.484,-29.785,0.000
1627808075.700,-2.930,-20.996,-17.578,10.254,0.000
1627808075.704,-20.508,-21.973,-17.578,-8.789,0.000
1627808075.708,-50.781,-27.344,-20.020,-55.176,0.000
1627808075.712,-29.785,-20.996,-15.137,-41.992,0.000
1627808075.715,8.301,-10.742,-9.766,8.301,0.000
1627808075.719,-0.488,-12.207,-10.254,7.324,0.000
1627808075.723,-42.969,-20.508,-16.113,-47.363,0.000
1627808075.727,-49.316,-20.996,-13.184,-55.664,0.000
1627808075.731,-14.648,-19.531,-9.766,-3.418,0.000
1627808075.735,-5.859,-20.996,-10.742,13.184,0.000
1627808075.739,-35.156,-19.531,-13.672,-25.391,0.000
1627808075.743,-49.316,-16.602,-17.578,-46.387,0.000
1627808075.747,-13.184,-12.207,-13.184,-9.277,0.000
1627808075.751,12.207,-7.812,-10.742,21.973,0.000
1627808075.755,-14.160,-9.766,-17.578,-7.324,0.000
1627808075.758,-43.945,-16.113,-20.020,-49.805,0.000
1627808075.762,-22.949,-13.184,-14.160,-26.855,0.000
1627808075.766,10.742,-5.859,-13.184,18.555,0.000
1627808075.770,-9.766,-6.836,-19.531,-1.953,0.000
1627808075.774,-48.340,-11.230,-25.391,-48.828,0.000
1627808075.778,-28.320,-7.812,-20.508,-35.645,0.000
1627808075.782,15.137,-7.812,-14.648,12.207,0.000
1627808075.786,12.207,-18.066,-15.625,13.672,0.000
1627808075.790,-27.344,-23.438,-18.066,-27.344,0.000
1627808075.794,-36.133,-20.996,-20.020,-34.180,0.000
1627808075.798,-1.953,-14.648,-17.090,8.301,0.000
1627808075.801,6.836,-14.648,-16.602,25.879,0.000
1627808075.805,-23.926,-20.020,-22.461,-16.602,0.000
1627808075.809,-44.922,-24.414,-23.926,-47.363,0.000
1627808075.813,-15.137,-21.484,-17.090,-7.812,0.000
1627808075.817,14.160,-10.742,-16.602,24.902,0.000
1627808075.821,-14.648,-15.625,-20.996,-11.719,0.000
1627808075.825,-44.434,-20.508,-20.996,-51.270,0.000
1627808075.829,-23.926,-12.207,-16.113,-31.250,0.000
1627808075.833,2.930,-9.277,-14.648,4.395,0.000
1627808075.837,-19.043,-20.996,-18.555,-11.230,0.000
1627808075.840,-53.711,-23.438,-18.555,-51.758,0.000
1627808075.844,-46.875,-19.531,-13.672,-44.434,0.000
1627808075.848,-7.812,-15.625,-6.836,1.953,0.000
1627808075.852,-2.930,-12.207,-11.230,9.277,0.000
1627808075.856,-42.480,-22.461,-21.484,-40.527,0.000
1627808075.860,-56.152,-20.996,-19.531,-62.988,0.000
1627808075.864,-25.391,-10.742,-14.160,-18.555,0.000
1627808075.868,-14.648,-16.113,-13.184,4.395,0.000
1627808075.872,-47.363,-18.555,-14.160,-31.738,0.000
1627808075.876,-60.547,-18.066,-14.648,-59.570,0.000
1627808075.880,-27.344,-16.602,-14.160,-26.855,0.000
1627808075.883,-5.371,-14.160,-16.602,7.324,0.000
1627808075.887,-27.344,-14.648,-17.090,-16.602,0.000
1627808075.891,-52.734,-20.508,-24.902,-57.129,0.000
1627808075.895,-37.109,-20.508,-25.879,-42.480,0.000
1627808075.899,-10.254,-18.555,-19.531,3.906,0.000
1627808075.903,-26.367,-23.926,-22.949,-5.859,0.000
1627808075.907,-55.176,-23.926,-20.996,-48.828,0.000
1627808075.911,-47.363,-16.602,-12.207,-43.457,0.000
1627808075.915,-13.184,-15.625,-14.648,0.488,0.000
1627808075.919,-11.230,-20.996,-20.996,5.859,0.000
1627808075.923,-42.969,-22.461,-22.461,-34.180,0.000
1627808075.926,-56.641,-26.855,-20.020,-57.129,0.000
1627808075.930,-30.273,-20.020,-15.625,-20.020,0.000
1627808075.934,-12.207,-11.230,-17.090,5.371,0.000
1627808075.938,-40.039,-14.648,-15.137,-28.320,0.000
1627808075.942,-60.547,-18.555,-14.648,-54.688,0.000
1627808075.946,-36.133,-24.414,-16.602,-30.273,0.000
1627808075.950,-1.953,-21.973,-11.719,4.883,0.000
1627808075.954,-14.648,-16.602,-15.625,-9.277,0.000
1627808075.958,-46.387,-17.578,-21.973,-51.270,0.000
1627808075.962,-29.297,-18.555,-18.066,-42.969,0.000
1627808075.966,6.348,-14.648,-11.230,6.836,0.000
1627808075.969,-0.977,-19.531,-12.695,2.930,0.000
1627808075.973,-33.203,-20.508,-8.789,-34.180,0.000
1627808075.977,-37.109,-18.066,-6.348,-42.969,0.000
1627808075.981,-1.953,-18.066,-5.371,-3.906,0.000
1627808075.985,12.207,-13.184,-5.371,17.090,0.000
1627808075.989,-25.391,-12.695,-18.066,-28.809,0.000
1627808075.993,-51.758,-15.137,-20.996,-63.965,0.000
1627808075.997,-24.414,-13.184,-20.020,-29.785,0.000
1627808076.001,4.883,-7.324,-17.578,6.836,0.000
1627808076.005,-21.973,-8.301,-20.020,-21.973,0.000
1627808076.008,-54.199,-12.695,-20.508,-59.082,0.000
1627808076.012,-27.832,-11.719,-14.648,-30.273,0.000
1627808076.016,8.301,-10.254,-12.207,14.648,0.000
1627808076.020,-6.836,-10.254,-18.555,3.418,0.000
1627808076.024,-40.039,-13.672,-20.996,-40.527,0.000
1627808076.028,-30.273,-15.625,-11.719,-33.691,0.000
1627808076.032,5.371,-9.277,-8.301,9.277,0.000
1627808076.036,3.418,-13.184,-13.184,5.371,0.000
1627808076.040,-36.621,-27.344,-20.020,-41.992,0.000
1627808076.044,-45.410,-20.996,-20.508,-51.270,0.000
1627808076.048,-9.766,-13.184,-20.996,-8.301,0.000
1627808076.051,5.371,-9.766,-20.996,12.207,0.000
1627808076.055,-21.973,-10.254,-17.578,-21.484,0.000
1627808076.059,-42.480,-16.602,-18.555,-49.805,0.000
1627808076.063,-17.090,-22.461,-23.438,-22.461,0.000
1627808076.067,6.348,-20.020,-21.973,9.277,0.000
1627808076.071,-16.113,-21.484,-22.461,-18.066,0.000
1627808076.075,-43.457,-26.367,-30.273,-57.129,0.000
1627808076.079,-29.785,-21.484,-32.227,-41.992,0.000
1627808076.083,1.465,-20.996,-23.438,3.418,0.000
1627808076.087,-7.812,-25.879,-20.508,-7.324,0.000
1627808076.091,-44.434,-23.926,-28.320,-57.129,0.000
1627808076.094,-41.016,-18.555,-25.391,-50.293,0.000
1627808076.098,-1.465,-15.625,-15.625,0.488,0.000
1627808076.102,-6.836,-20.508,-20.996,1.465,0.000
1627808076.106,-46.875,-30.762,-30.273,-45.410,0.000
1627808076.110,-55.664,-33.203,-28.809,-59.570,0.000
1627808076.114,-21.484,-25.391,-23.926,-17.090,0.000
1627808076.118,2.441,-18.066,-20.508,11.719,0.000
1627808076.122,-28.809,-15.625,-20.996,-25.879,0.000
1627808076.126,-52.734,-16.602,-20.996,-60.059,0.000
1627808076.130,-20.020,-14.160,-16.602,-25.391,0.000
1627808076.134,12.695,-12.207,-12.695,15.625,0.000
1627808076.137,-6.348,-13.184,-12.695,-3.906,0.000
1627808076.141,-36.621,-16.113,-17.578,-42.969,0.000
1627808076.145,-23.926,-16.113,-18.555,-30.762,0.000
1627808076.149,11.230,-13.184,-15.625,12.207,0.000
1627808076.153,6.348,-12.695,-15.625,7.812,0.000
1627808076.157,-32.715,-16.113,-20.020,-38.086,0.000
1627808076.161,-26.855,-18.555,-18.066,-45.898,0.000
1627808076.165,9.277,-12.207,-10.742,0.000,0.000
1627808076.169,11.719,-5.371,-7.324,12.695,0.000
1627808076.173,-23.438,-10.254,-15.137,-36.133,0.000
1627808076.176,-34.180,-11.719,-21.484,-59.082,0.000
1627808076.180,2.930,-12.695,-19.531,-19.531,0.000
1627808076.184,21.484,-15.137,-17.578,10.254,0.000
1627808076.188,-0.977,-12.695,-18.066,-18.066,0.000
1627808076.192,-26.367,-10.742,-16.113,-49.316,0.000
1627808076.196,-11.230,-19.531,-18.555,-28.809,0.000
1627808076.200,12.695,-16.602,-14.648,15.137,0.000
1627808076.204,-19.531,-12.207,-12.207,3.906,0.000
1627808076.208,-65.918,-22.949,-17.090,-43.457,0.000
1627808076.212,-52.734,-28.809,-23.438,-35.645,0.000
1627808076.216,-8.789,-17.578,-20.508,16.113,0.000
1627808076.219,-9.766,-10.742,-20.020,13.672,0.000
1627808076.223,-43.457,-21.973,-25.879,-39.062,0.000
1627808076.227,-39.551,-22.949,-24.902,-52.246,0.000
1627808076.231,-4.395,-17.090,-23.926,-8.789,0.000
1627808076.235,-2.441,-16.113,-20.996,5.859,0.000
1627808076.239,-35.156,-18.555,-20.508,-35.645,0.000
1627808076.243,-50.781,-20.508,-26.855,-59.570,0.000
1627808076.247,-16.602,-14.648,-25.879,-23.438,0.000
1627808076.251,4.395,-17.090,-25.879,4.883,0.000
1627808076.255,-16.602,-17.578,-24.902,-16.602,0.000
1627808076.259,-35.156,-17.578,-27.344,-49.316,0.000
1627808076.262,-20.996,-25.391,-31.738,-41.016,0.000
1627808076.266,8.789,-22.949,-24.902,3.418,0.000
1627808076.270,-8.789,-20.996,-25.391,-11.719,0.000
1627808076.274,-51.758,-23.926,-30.762,-61.035,0.000
1627808076.278,-40.527,-20.508,-27.832,-47.852,0.000
1627808076.282,0.000,-13.672,-20.020,1.465,0.000
1627808076.286,3.418,-12.207,-14.160,9.766,0.000
1627808076.290,-32.227,-19.531,-18.555,-32.227,0.000
1627808076.294,-41.504,-22.949,-22.949,-50.293,0.000
1627808076.298,-2.441,-18.066,-18.066,-3.906,0.000
1627808076.301,13.672,-12.695,-14.648,20.996,0.000
1627808076.305,-22.949,-18.066,-19.531,-25.391,0.000
1627808076.309,-49.805,-21.484,-23.438,-59.570,0.000
1627808076.313,-19.531,-13.184,-19.531,-24.414,0.000
1627808076.317,0.977,-16.602,-15.137,13.184,0.000
1627808076.321,-28.320,-22.949,-18.555,-13.672,0.000
1627808076.325,-48.340,-18.555,-22.461,-53.223,0.000
1627808076.329,-25.391,-15.625,-20.508,-30.762,0.000
1627808076.333,7.324,-10.742,-15.137,12.207,0.000
1627808076.337,-8.789,-11.230,-19.531,-0.977,0.000
1627808076.341,-42.969,-15.625,-21.973,-45.898,0.000
1627808076.344,-40.039,-21.973,-16.113,-44.922,0.000
1627808076.348,-10.254,-19.531,-14.160,4.395,0.000
1627808076.352,-4.883,-15.625,-15.137,14.648,0.000
1627808076.356,-42.480,-21.973,-18.555,-33.203,0.000
1627808076.360,-49.805,-20.996,-21.484,-51.270,0.000
1627808076.364,-7.324,-14.160,-14.160,-4.883,0.000
1627808076.368,9.766,-15.137,-12.695,20.508,0.000
1627808076.372,-24.902,-24.414,-22.461,-20.508,0.000
1627808076.376,-51.270,-25.391,-27.344,-60.059,0.000
1627808076.380,-18.555,-19.531,-19.531,-28.320,0.000
1627808076.384,11.230,-17.578,-17.578,9.277,0.000
1627808076.387,-22.461,-24.902,-24.414,-18.066,0.000
1627808076.391,-53.223,-30.273,-25.391,-54.199,0.000
1627808076.395,-28.809,-25.391,-25.879,-38.086,0.000
1627808076.399,5.859,-17.090,-22.461,6.836,0.000
1627808076.403,-2.930,-15.625,-18.066,5.859,0.000
1627808076.407,-34.180,-21.973,-20.020,-42.969,0.000
1627808076.411,-28.809,-18.066,-21.484,-50.293,0.000
1627808076.415,3.906,-11.719,-17.090,-8.789,0.000
1627808076.419,5.859,-14.160,-12.207,4.395,0.000
1627808076.423,-25.391,-22.461,-17.090,-34.180,0.000
1627808076.427,-36.621,-27.832,-19.043,-55.664,0.000
1627808076.430,-11.230,-22.949,-19.531,-16.602,0.000
1627808076.434,4.395,-12.207,-16.113,9.277,0.000
1627808076.438,-29.785,-20.996,-20.020,-28.320,0.000
1627808076.442,-53.711,-28.320,-22.949,-62.012,0.000
1627808076.446,-25.391,-19.043,-17.090,-35.645,0.000
1627808076.450,1.953,-11.230,-15.137,1.465,0.000
1627808076.454,-17.578,-13.672,-19.531,-15.625,0.000
1627808076.458,-45.410,-14.160,-22.461,-55.664,0.000
1627808076.462,-23.438,-8.301,-17.578,-40.527,0.000
1627808076.466,16.113,-4.883,-16.113,6.348,0.000
1627808076.469,4.395,-12.695,-17.578,4.395,0.000
1627808076.473,-37.598,-18.066,-20.508,-47.363,0.000
1627808076.477,-33.691,-8.301,-16.602,-56.641,0.000
1627808076.481,3.906,-6.348,-13.184,-8.301,0.000
1627808076.485,10.742,-12.695,-13.184,14.160,0.000
1627808076.489,-20.996,-18.066,-16.602,-27.344,0.000
1627808076.493,-43.457,-23.926,-20.508,-63.477,0.000
1627808076.497,-17.090,-21.973,-20.020,-29.785,0.000
1627808076.501,5.859,-20.508,-16.602,3.906,0.000
1627808076.505,-23.926,-24.414,-18.555,-23.926,0.000
1627808076.509,-52.246,-26.855,-23.438,-65.430,0.000
1627808076.512,-26.855,-26.367,-17.090,-45.410,0.000
1627808076.516,7.324,-20.508,-11.230,1.465,0.000
1627808076.520,-9.277,-17.090,-13.672,-12.207,0.000
1627808076.524,-46.387,-20.020,-17.578,-56.641,0.000
1627808076.528,-38.574,-19.531,-14.160,-46.875,0.000
1627808076.532,-6.836,-24.902,-14.648,0.000,0.000
1627808076.536,-13.184,-27.832,-17.090,9.766,0.000
1627808076.540,-48.828,-20.020,-21.973,-31.250,0.000
1627808076.544,-59.082,-21.973,-27.832,-54.199,0.000
1627808076.548,-20.508,-18.555,-18.555,-10.742,0.000
1627808076.552,-0.488,-14.160,-12.695,14.648,0.000
1627808076.555,-40.039,-24.414,-18.555,-26.367,0.000
1627808076.559,-64.941,-25.879,-22.461,-56.152,0.000
1627808076.563,-34.668,-22.461,-18.555,-18.555,0.000
1627808076.567,-4.883,-18.555,-18.555,15.625,0.000
1627808076.571,-27.344,-20.996,-25.391,-19.043,0.000
1627808076.575,-55.176,-21.484,-28.320,-54.199,0.000
1627808076.579,-31.250,-18.066,-29.297,-40.039,0.000
1627808076.583,3.906,-16.602,-26.367,3.906,0.000
1627808076.587,-7.812,-16.113,-25.879,4.395,0.000
1627808076.591,-40.527,-13.672,-29.297,-40.527,0.000
1627808076.594,-36.133,-12.207,-22.949,-36.133,0.000
1627808076.598,1.953,-11.230,-14.160,11.230,0.000
1627808076.602,-1.465,-14.160,-18.066,14.160,0.000
1627808076.606,-33.203,-19.531,-21.973,-28.320,0.000
1627808076.610,-34.668,-14.648,-17.578,-42.480,0.000
1627808076.614,-1.465,-8.301,-11.719,0.000,0.000
1627808076.618,10.254,-11.230,-13.184,20.020,0.000
1627808076.622,-24.414,-16.602,-20.508,-20.996,0.000
1627808076.626,-53.711,-24.902,-22.949,-57.129,0.000
1627808076.630,-32.227,-27.344,-22.461,-28.320,0.000
1627808076.634,1.465,-27.344,-20.020,10.742,0.000
1627808076.637,-18.066,-22.461,-18.066,-9.766,0.000
1627808076.641,-55.176,-16.602,-22.949,-51.270,0.000
1627808076.645,-40.527,-17.578,-24.414,-39.551,0.000
1627808076.649,-2.441,-20.508,-17.578,9.277,0.000
1627808076.653,-12.695,-22.949,-17.578,5.371,0.000
1627808076.657,-48.828,-23.438,-18.066,-36.133,0.000
1627808076.661,-44.922,-17.090,-15.137,-36.621,0.000
1627808076.665,-9.766,-20.996,-14.648,5.859,0.000
1627808076.669,-3.906,-27.344,-12.207,16.113,0.000
1627808076.673,-31.738,-21.484,-13.184,-20.508,0.000
1627808076.677,-46.875,-17.090,-18.066,-46.875,0.000
1627808076.680,-15.625,-16.602,-18.066,-12.207,0.000
1627808076.684,9.766,-3.418,-13.184,27.344,0.000
1627808076.688,-18.066,-3.418,-15.625,-6.348,0.000
1627808076.692,-46.875,-15.625,-20.020,-47.363,0.000
1627808076.696,-25.879,-17.090,-18.555,-22.461,0.000
1627808076.700,5.859,-16.113,-18.066,20.996,0.000
1627808076.704,-6.836,-9.766,-21.484,6.836,0.000
1627808076.708,-32.715,-6.836,-24.902,-36.133,0.000
1627808076.712,-22.461,-11.230,-26.855,-30.762,0.000
1627808076.716,12.695,-6.836,-23.438,12.695,0.000
1627808076.720,6.836,-5.859,-22.949,8.789,0.000
1627808076.723,-28.320,-15.137,-25.391,-38.574,0.000
1627808076.727,-33.203,-19.531,-24.414,-46.387,0.000
1627808076.731,1.465,-17.090,-24.414,-0.488,0.000
1627808076.735,12.207,-16.113,-21.973,18.066,0.000
1627808076.739,-26.367,-22.461,-26.367,-25.879,0.000
1627808076.743,-44.922,-23.438,-26.855,-53.223,0.000
1627808076.747,-18.555,-16.113,-22.461,-19.043,0.000
1627808076.751,-2.441,-13.672,-24.414,11.719,0.000
1627808076.755,-25.879,-14.160,-26.855,-20.020,0.000
1627808076.759,-53.223,-13.672,-27.344,-62.988,0.000
1627808076.762,-34.180,-16.113,-23.438,-41.992,0.000
1627808076.766,-3.906,-19.043,-19.043,7.812,0.000
1627808076.770,-16.602,-19.531,-19.531,-4.395,0.000
1627808076.774,-45.898,-19.043,-21.973,-51.270,0.000
1627808076.778,-34.668,-15.625,-19.531,-52.246,0.000
1627808076.782,0.488,-11.230,-20.996,-10.254,0.000
1627808076.786,-2.441,-15.137,-24.902,-2.930,0.000
1627808076.790,-39.551,-21.484,-28.320,-49.316,0.000
1627808076.794,-50.293,-20.996,-31.250,-62.988,0.000
1627808076.798,-14.160,-18.555,-31.250,-18.066,0.000
1627808076.802,5.859,-15.137,-24.902,9.766,0.000
1627808076.805,-27.344,-25.391,-25.879,-28.320,0.000
1627808076.809,-42.480,-25.879,-22.461,-52.246,0.000
1627808076.813,-9.277,-21.484,-12.695,-10.742,0.000
1627808076.817,14.648,-20.020,-12.207,21.484,0.000
1627808076.821,-12.695,-20.020,-15.625,-5.859,0.000
1627808076.825,-41.016,-22.461,-15.625,-46.875,0.000
1627808076.829,-24.902,-20.996,-16.113,-31.250,0.000
1627808076.833,4.883,-15.137,-14.648,12.207,0.000
1627808076.837,-10.742,-18.066,-18.555,-3.418,0.000
1627808076.841,-44.922,-25.879,-18.555,-49.805,0.000
1627808076.845,-40.039,-20.996,-16.113,-45.898,0.000
1627808076.848,2.441,-10.254,-10.742,1.953,0.000
1627808076.852,3.906,-15.625,-11.719,9.766,0.000
1627808076.856,-45.898,-30.273,-24.414,-39.062,0.000
1627808076.860,-51.270,-24.902,-23.926,-56.152,0.000
1627808076.864,-11.230,-19.531,-19.043,-17.090,0.000
1627808076.868,3.906,-18.066,-23.438,5.859,0.000
1627808076.872,-31.250,-17.578,-28.320,-28.809,0.000
1627808076.876,-53.223,-22.461,-24.902,-60.547,0.000
1627808076.880,-21.973,-21.973,-21.973,-31.250,0.000
1627808076.884,5.859,-16.602,-15.137,10.254,0.000
1627808076.887,-19.043,-16.602,-15.625,-14.160,0.000
1627808076.891,-50.293,-19.531,-17.090,-60.059,0.000
1627808076.895,-30.273,-13.672,-12.207,-39.062,0.000
1627808076.899,11.230,-9.766,-11.719,11.719,0.000
1627808076.903,1.953,-14.160,-13.672,8.301,0.000
1627808076.907,-41.992,-27.832,-23.438,-43.945,0.000
1627808076.911,-41.504,-21.973,-25.879,-52.246,0.000
1627808076.915,-7.324,-10.742,-18.555,-6.348,0.000
1627808076.919,-4.395,-15.625,-16.113,5.859,0.000
1627808076.923,-36.621,-23.438,-19.043,-37.109,0.000
1627808076.927,-52.246,-28.320,-19.531,-62.012,0.000
1627808076.930,-23.926,-32.715,-19.531,-26.367,0.000
1627808076.934,-0.488,-27.344,-19.043,8.301,0.000
1627808076.938,-28.320,-21.484,-21.484,-20.508,0.000
1627808076.942,-53.711,-21.484,-23.926,-58.105,0.000
1627808076.946,-31.250,-21.973,-20.996,-34.668,0.000
1627808076.950,1.465,-20.996,-18.555,5.371,0.000
1627808076.954,-13.184,-20.996,-20.996,-12.695,0.000
1627808076.958,-52.734,-30.273,-25.391,-61.523,0.000
1627808076.962,-41.504,-33.691,-25.391,-54.688,0.000
1627808076.966,0.488,-22.949,-24.414,-8.301,0.000
1627808076.970,-1.953,-15.625,-27.344,-9.766,0.000
1627808076.973,-43.945,-22.461,-30.273,-59.082,0.000
1627808076.977,-49.805,-23.438,-26.367,-64.941,0.000
1627808076.981,-13.184,-16.113,-19.531,-16.113,0.000
1627808076.985,0.977,-10.742,-17.578,5.371,0.000
1627808076.989,-32.715,-12.207,-20.996,-37.598,0.000
1627808076.993,-55.176,-12.695,-22.461,-71.777,0.000
1627808076.997,-24.414,-12.695,-18.066,-32.715,0.000
1627808077.001,0.000,-13.184,-15.625,8.789,0.000
1627808077.005,-29.297,-14.648,-17.090,-19.531,0.000
1627808077.009,-56.152,-18.555,-16.113,-56.152,0.000
1627808077.013,-39.062,-19.043,-17.578,-33.691,0.000
1627808077.016,-9.277,-18.066,-18.555,11.230,0.000
1627808077.020,-22.949,-21.484,-21.973,-4.395,0.000
1627808077.024,-62.012,-26.855,-25.391,-59.082,0.000
1627808077.028,-56.152,-25.391,-22.949,-55.664,0.000
1627808077.032,-14.648,-16.602,-19.531,-5.859,0.000
1627808077.036,-9.277,-12.695,-16.602,2.441,0.000
1627808077.040,-43.457,-21.484,-21.973,-42.480,0.000
1627808077.044,-48.340,-26.855,-22.949,-57.129,0.000
1627808077.048,-12.695,-20.508,-18.555,-9.766,0.000
1627808077.052,-1.953,-17.578,-15.625,15.137,0.000
1627808077.055,-32.715,-25.879,-17.090,-25.391,0.000
1627808077.059,-46.875,-22.461,-19.043,-54.199,0.000
1627808077.063,-16.602,-12.207,-17.578,-25.391,0.000
1627808077.067,2.930,-9.766,-16.113,1.953,0.000
1627808077.071,-19.531,-9.277,-18.555,-23.438,0.000
1627808077.075,-41.992,-14.648,-20.508,-62.988,0.000
1627808077.079,-15.625,-17.090,-14.160,-39.062,0.000
1627808077.083,25.879,-8.789,-8.789,20.020,0.000
1627808077.087,17.090,-12.695,-8.789,15.625,0.000
1627808077.091,-23.926,-14.160,-11.719,-30.273,0.000
1627808077.095,-30.273,-14.160,-12.695,-32.715,0.000
1627808077.098,-2.441,-16.602,-8.789,10.254,0.000
1627808077.102,-13.672,-20.996,-12.695,8.789,0.000
1627808077.106,-60.059,-31.738,-21.973,-46.875,0.000
1627808077.110,-67.871,-29.785,-17.578,-59.570,0.000
1627808077.114,-27.344,-23.438,-11.719,-14.160,0.000
1627808077.118,-5.859,-22.461,-11.719,11.719,0.000
1627808077.122,-31.738,-18.066,-15.625,-22.461,0.000
1627808077.126,-59.082,-22.949,-17.578,-56.152,0.000
1627808077.130,-31.250,-22.461,-14.160,-30.762,0.000
1627808077.134,-1.465,-17.578,-11.230,4.883,0.000
1627808077.138,-29.785,-24.902,-14.648,-20.508,0.000
1627808077.141,-60.547,-28.809,-24.902,-62.988,0.000
1627808077.145,-42.969,-25.879,-24.414,-49.316,0.000
1627808077.149,-9.766,-22.949,-18.066,-8.789,0.000
1627808077.153,-15.625,-21.484,-15.137,-12.695,0.000
1627808077.157,-44.922,-26.367,-18.555,-51.758,0.000
1627808077.161,-41.504,-25.391,-16.602,-52.734,0.000
1627808077.165,-3.418,-19.043,-14.648,-4.883,0.000
1627808077.169,3.906,-16.113,-16.113,9.277,0.000
1627808077.173,-25.879,-14.160,-19.531,-32.227,0.000
1627808077.177,-41.016,-12.207,-20.508,-51.758,0.000
1627808077.180,-17.090,-17.578,-14.648,-12.695,0.000
1627808077.184,0.000,-23.438,-10.742,15.137,0.000
1627808077.188,-30.273,-25.879,-15.137,-16.602,0.000
1627808077.192,-61.523,-36.133,-25.391,-61.523,0.000
1627808077.196,-37.598,-34.668,-23.438,-40.527,0.000
1627808077.200,-4.883,-29.297,-22.461,0.000,0.000
1627808077.204,-11.719,-22.461,-23.926,-16.113,0.000
1627808077.208,-32.227,-22.949,-23.438,-54.688,0.000
1627808077.212,-21.484,-27.832,-22.461,-44.434,0.000
1627808077.216,12.207,-17.578,-18.066,2.930,0.000
1627808077.220,9.277,-13.184,-14.160,3.906,0.000
1627808077.223,-32.715,-18.555,-16.113,-44.434,0.000
1627808077.227,-46.387,-24.414,-23.438,-60.547,0.000
1627808077.231,-9.277,-26.855,-20.020,-13.184,0.000
1627808077.235,11.719,-19.531,-11.230,12.695,0.000
1627808077.239,-32.227,-23.438,-18.555,-29.297,0.000
1627808077.243,-59.570,-28.809,-23.926,-58.594,0.000
1627808077.247,-22.949,-20.020,-18.555,-20.508,0.000
1627808077.251,-1.953,-20.996,-19.043,8.301,0.000
1627808077.255,-29.785,-22.949,-18.555,-19.043,0.000
1627808077.259,-53.711,-20.020,-19.043,-58.105,0.000
1627808077.263,-32.715,-18.555,-19.531,-45.898,0.000
1627808077.266,-7.812,-17.090,-18.066,-3.418,0.000
1627808077.270,-23.926,-19.043,-17.578,-11.230,0.000
1627808077.274,-59.082,-24.414,-18.066,-61.523,0.000
1627808077.278,-54.688,-23.438,-17.578,-56.152,0.000
1627808077.282,-10.254,-20.020,-13.672,-4.883,0.000
1627808077.286,-5.859,-17.090,-12.207,5.371,0.000
1627808077.290,-45.410,-22.949,-18.555,-36.133,0.000
1627808077.294,-51.270,-27.344,-22.461,-54.688,0.000
1627808077.298,-13.672,-24.414,-20.020,-12.695,0.000
1627808077.302,-1.465,-23.438,-17.090,6.348,0.000
1627808077.306,-37.598,-26.855,-23.438,-31.250,0.000
1627808077.309,-58.594,-28.809,-26.367,-63.477,0.000
1627808077.313,-25.391,-22.949,-17.578,-33.691,0.000
1627808077.317,-0.977,-16.113,-12.207,1.953,0.000
1627808077.321,-28.809,-19.531,-17.578,-24.414,0.000
1627808077.325,-60.059,-28.320,-24.902,-64.453,0.000
1627808077.329,-38.086,-20.508,-23.926,-46.387,0.000
1627808077.333,1.465,-13.184,-17.090,1.953,0.000
1627808077.337,-9.277,-15.137,-14.648,-5.371,0.000
1627808077.341,-48.828,-15.137,-21.484,-55.664,0.000
1627808077.345,-45.898,-16.113,-24.902,-61.523,0.000
1627808077.348,-9.766,-16.602,-22.461,-17.090,0.000
1627808077.352,-4.395,-16.113,-22.949,-6.348,0.000
1627808077.356,-40.527,-18.555,-25.879,-48.828,0.000
1627808077.360,-56.152,-21.484,-25.391,-70.312,0.000
1627808077.364,-24.902,-17.578,-19.531,-30.762,0.000
1627808077.368,-3.418,-10.742,-16.602,4.395,0.000
1627808077.372,-26.367,-18.555,-20.020,-29.297,0.000
1627808077.376,-39.551,-20.508,-15.625,-62.012,0.000
1627808077.380,-16.113,-18.066,-13.184,-30.762,0.000
1627808077.384,8.789,-21.973,-13.672,8.301,0.000
1627808077.388,-8.301,-17.090,-10.742,-6.836,0.000
1627808077.391,-45.410,-20.020,-16.602,-45.898,0.000
1627808077.395,-29.785,-16.602,-14.160,-32.227,0.000
1627808077.399,7.324,-4.395,-9.277,6.348,0.000
1627808077.403,-1.953,-7.324,-12.695,-2.441,0.000
1627808077.407,-43.457,-13.672,-18.555,-48.828,0.000
1627808077.411,-44.922,-16.602,-17.578,-56.641,0.000
1627808077.415,-8.301,-21.973,-11.719,-9.277,0.000
1627808077.419,-2.441,-20.020,-12.207,8.789,0.000
1627808077.423,-33.203,-20.020,-18.066,-31.738,0.000
1627808077.427,-41.016,-20.508,-16.113,-53.223,0.000
1627808077.431,-6.836,-12.207,-14.160,-12.207,0.000
1627808077.434,13.184,-12.207,-15.137,20.020,0.000
1627808077.438,-16.602,-18.066,-13.672,-14.160,0.000
1627808077.442,-41.504,-12.207,-13.672,-48.828,0.000
1627808077.446,-14.648,-10.254,-12.695,-23.438,0.000
1627808077.450,9.277,-10.254,-6.836,13.672,0.000
1627808077.454,-12.695,-9.766,-7.812,-4.395,0.000
1627808077.458,-45.410,-10.254,-12.207,-48.340,0.000
1627808077.462,-36.621,-7.812,-12.207,-38.574,0.000
1627808077.466,-0.488,-9.766,-10.254,9.277,0.000
1627808077.470,-2.441,-16.602,-10.254,8.789,0.000
1627808077.473,-37.109,-18.555,-13.184,-32.715,0.000
1627808077.477,-38.574,-20.020,-17.090,-45.410,0.000
1627808077.481,0.488,-12.695,-14.160,-4.883,0.000
1627808077.485,13.184,-1.953,-7.324,17.090,0.000
1627808077.489,-16.602,-3.906,-5.371,-12.695,0.000
1627808077.493,-38.574,-9.277,-8.789,-41.504,0.000
1627808077.497,-10.254,-11.230,-5.371,-15.137,0.000
1627808077.501,11.719,-13.184,-3.906,16.113,0.000
1627808077.505,-9.766,-5.859,-5.859,-3.418,0.000
1627808077.509,-30.762,-10.742,-6.836,-38.574,0.000
1627808077.513,-15.137,-19.531,-6.348,-23.438,0.000
1627808077.516,18.066,-14.648,-6.348,19.043,0.000
1627808077.520,-0.977,-16.602,-10.742,5.371,0.000
1627808077.524,-38.574,-20.996,-15.625,-44.434,0.000
1627808077.528,-27.832,-20.020,-16.113,-37.598,0.000
1627808077.532,4.395,-16.113,-13.672,11.719,0.000
1627808077.536,1.465,-12.695,-11.230,21.484,0.000
1627808077.540,-31.250,-13.672,-15.137,-20.508,0.000
1627808077.544,-42.480,-13.672,-17.090,-33.203,0.000
1627808077.548,-7.324,-9.766,-13.184,12.207,0.000
1627808077.552,12.695,-4.395,-7.812,37.598,0.000
1627808077.556,-24.902,-12.695,-14.648,-5.859,0.000
1627808077.559,-55.176,-20.996,-23.438,-49.805,0.000
1627808077.563,-26.367,-12.207,-20.508,-20.996,0.000
1627808077.567,3.418,-4.395,-13.672,17.090,0.000
1627808077.571,-22.461,-12.207,-19.531,-4.883,0.000
1627808077.575,-52.734,-19.531,-25.391,-51.270,0.000
1627808077.579,-31.738,-19.043,-24.414,-41.016,0.000
1627808077.583,7.812,-10.254,-20.996,9.766,0.000
1627808077.587,-1.953,-9.277,-23.438,1.465,0.000
1627808077.591,-37.598,-19.531,-30.762,-49.805,0.000
1627808077.595,-29.785,-14.648,-29.785,-50.293,0.000
1627808077.599,6.836,-4.395,-27.832,2.930,0.000
1627808077.602,8.789,-7.324,-27.832,17.090,0.000
1627808077.606,-28.320,-19.531,-29.297,-25.879,0.000
1627808077.610,-41.504,-23.926,-31.250,-45.410,0.000
1627808077.614,-4.395,-10.742,-28.320,-5.371,0.000
1627808077.618,17.090,-5.859,-22.949,24.414,0.000
1627808077.622,-15.137,-12.695,-26.855,-12.695,0.000
1627808077.626,-39.551,-9.766,-31.738,-50.781,0.000
1627808077.630,-9.277,-10.254,-28.320,-20.996,0.000
1627808077.634,23.926,-10.742,-22.949,25.879,0.000
1627808077.638,-6.836,-14.648,-21.484,10.742,0.000
1627808077.641,-46.387,-21.973,-23.926,-30.762,0.000
1627808077.645,-20.996,-11.230,-17.578,-17.578,0.000
1627808077.649,18.555,-8.301,-14.648,22.949,0.000
1627808077.653,8.301,-12.207,-12.695,22.461,0.000
1627808077.657,-28.809,-10.742,-13.184,-21.484,0.000
1627808077.661,-25.391,-1.953,-14.160,-30.762,0.000
1627808077.665,9.277,-6.348,-7.812,8.301,0.000
1627808077.669,6.348,-12.207,-9.277,19.043,0.000
1627808077.673,-28.320,-15.137,-15.625,-20.020,0.000
1627808077.677,-38.574,-19.043,-17.090,-38.086,0.000
1627808077.681,-10.254,-18.066,-14.648,-0.977,0.000
1627808077.684,4.883,-22.949,-14.160,26.855,0.000
1627808077.688,-22.461,-26.367,-19.531,-6.348,0.000
1627808077.692,-41.016,-20.020,-21.973,-41.992,0.000
1627808077.696,-16.113,-18.066,-19.043,-17.578,0.000
1627808077.700,11.230,-16.602,-16.602,18.555,0.000
1627808077.704,-10.742,-19.043,-18.555,-2.930,0.000
1627808077.708,-53.223,-22.949,-20.020,-52.246,0.000
1627808077.712,-44.922,-20.508,-17.090,-44.434,0.000
1627808077.716,-2.930,-13.672,-13.672,9.277,0.000
1627808077.720,-5.859,-10.254,-12.695,11.230,0.000
1627808077.724,-49.316,-26.367,-18.555,-42.969,0.000
1627808077.727,-60.059,-35.645,-18.066,-57.129,0.000
1627808077.731,-14.160,-27.832,-8.789,-4.883,0.000
1627808077.735,5.859,-20.508,-6.836,22.461,0.000
1627808077.739,-30.273,-21.484,-10.742,-13.672,0.000
1627808077.743,-43.457,-28.320,-9.277,-43.945,0.000
1627808077.747,-1.465,-20.020,-2.930,-4.395,0.000
1627808077.751,18.555,-15.137,-6.836,25.391,0.000
1627808077.755,-12.695,-19.531,-16.602,-10.254,0.000
1627808077.759,-36.621,-19.043,-20.996,-51.758,0.000
1627808077.763,-18.066,-15.137,-19.531,-30.273,0.000
1627808077.766,12.695,-12.207,-19.531,20.020,0.000
1627808077.770,1.465,-11.719,-20.996,9.277,0.000
1627808077.774,-29.785,-14.160,-23.438,-44.434,0.000
1627808077.778,-20.996,-17.090,-23.926,-44.434,0.000
1627808077.782,17.578,-11.719,-21.973,8.301,0.000
1627808077.786,25.879,-1.465,-19.043,23.438,0.000
1627808077.790,-6.348,-9.277,-23.438,-20.020,0.000
1627808077.794,-18.066,-12.207,-28.320,-42.969,0.000
1627808077.798,22.461,-4.395,-20.508,2.441,0.000
1627808077.802,36.621,-8.789,-16.602,33.691,0.000
1627808077.806,-0.977,-15.137,-24.414,-6.348,0.000
1627808077.809,-24.414,-11.719,-27.344,-41.504,0.000
1627808077.813,2.441,-10.254,-24.414,-8.789,0.000
1627808077.817,37.598,-8.301,-20.020,31.738,0.000
1627808077.821,10.742,-10.742,-23.438,5.371,0.000
1627808077.825,-30.762,-15.137,-23.926,-36.133,0.000
1627808077.829,-14.160,-8.301,-14.160,-17.578,0.000
1627808077.833,13.184,-3.906,-10.254,30.273,0.000
1627808077.837,-9.766,-16.113,-15.625,17.090,0.000
1627808077.841,-46.387,-23.438,-20.508,-37.109,0.000
1627808077.845,-45.898,-22.949,-21.484,-43.457,0.000
1627808077.849,-15.137,-20.508,-15.625,-2.441,0.000
1627808077.852,-14.160,-17.578,-12.207,6.348,0.000
1627808077.856,-47.852,-15.625,-14.160,-36.621,0.000
1627808077.860,-65.918,-21.973,-19.043,-62.012,0.000
1627808077.864,-36.133,-26.367,-16.602,-23.438,0.000
1627808077.868,-9.277,-21.973,-11.230,8.301,0.000
1627808077.872,-36.621,-25.391,-16.602,-25.391,0.000
1627808077.876,-60.547,-26.367,-17.578,-60.547,0.000
1627808077.880,-34.668,-21.973,-13.184,-32.715,0.000
1627808077.884,-8.789,-26.367,-13.184,6.348,0.000
1627808077.888,-25.391,-36.621,-18.555,-15.137,0.000
1627808077.892,-50.293,-36.621,-20.020,-52.246,0.000
1627808077.895,-34.180,-32.715,-16.602,-39.062,0.000
1627808077.899,11.719,-26.367,-11.230,6.348,0.000
1627808077.903,0.488,-27.832,-11.719,6.836,0.000
1627808077.907,-43.457,-32.227,-20.020,-39.551,0.000
1627808077.911,-42.480,-30.762,-21.973,-48.828,0.000
1627808077.915,-8.301,-29.297,-18.066,-1.465,0.000
1627808077.919,0.488,-27.832,-16.602,21.973,0.000
1627808077.923,-29.785,-23.926,-16.602,-9.766,0.000
1627808077.927,-41.504,-20.020,-12.207,-30.762,0.000
1627808077.931,-6.836,-13.672,-8.301,8.301,0.000
1627808077.934,13.184,-14.160,-10.254,39.062,0.000
1627808077.938,-20.508,-25.879,-13.184,-2.930,0.000
1627808077.942,-44.434,-20.508,-13.672,-41.992,0.000
1627808077.946,-14.648,-14.160,-17.578,-13.184,0.000
1627808077.950,20.020,-15.137,-16.602,26.855,0.000
1627808077.954,5.371,-12.695,-14.648,11.230,0.000
1627808077.958,-30.273,-19.043,-20.996,-36.133,0.000
1627808077.962,-20.020,-21.973,-19.043,-35.156,0.000
1627808077.966,18.555,-15.137,-9.277,12.695,0.000
1627808077.970,16.113,-11.230,-9.766,14.648,0.000
1627808077.974,-14.160,-6.836,-16.602,-26.855,0.000
1627808077.977,-21.973,-6.836,-18.555,-41.992,0.000
1627808077.981,17.090,-10.254,-6.348,1.953,0.000
1627808077.985,45.410,-7.324,-0.488,26.855,0.000
1627808077.989,17.090,-8.301,-11.230,-11.719,0.000
1627808077.993,-2.930,-11.719,-17.090,-42.480,0.000
1627808077.997,27.344,-5.859,-9.766,-7.812,0.000
1627808078.001,44.434,-4.395,-5.371,30.762,0.000
1627808078.005,10.254,-12.695,-2.930,5.371,0.000
1627808078.009,-28.320,-20.996,-2.930,-33.203,0.000
1627808078.013,-18.555,-16.113,-0.977,-6.836,0.000
1627808078.017,11.719,-8.789,2.930,41.504,0.000
1627808078.020,-2.930,-12.207,-0.977,29.297,0.000
1627808078.024,-40.039,-22.949,-6.348,-22.461,0.000
1627808078.028,-28.809,-22.461,-6.836,-25.879,0.000
1627808078.032,8.789,-16.602,-7.324,16.113,0.000
1627808078.036,3.906,-19.043,-5.371,19.043,0.000
1627808078.040,-34.668,-23.438,-8.789,-30.273,0.000
1627808078.044,-46.875,-19.531,-9.277,-43.457,0.000
1627808078.048,-17.090,-10.254,-7.324,-1.953,0.000
1627808078.052,-5.371,-12.695,-9.766,12.695,0.000
1627808078.056,-42.480,-17.090,-13.672,-25.391,0.000
1627808078.059,-67.871,-14.648,-18.555,-60.059,0.000
1627808078.063,-32.227,-7.324,-18.066,-26.367,0.000
1627808078.067,-2.441,-4.395,-15.137,9.277,0.000
1627808078.071,-23.438,-13.184,-17.090,-22.949,0.000
1627808078.075,-46.387,-22.949,-22.461,-66.406,0.000
1627808078.079,-25.391,-23.438,-21.973,-45.410,0.000
1627808078.083,10.254,-16.602,-18.066,-0.488,0.000
1627808078.087,-5.859,-15.137,-24.414,-13.672,0.000
1627808078.091,-43.457,-14.648,-28.320,-59.082,0.000
1627808078.095,-37.598,-16.113,-27.344,-60.059,0.000
1627808078.099,-1.953,-20.996,-24.902,-16.113,0.000
1627808078.102,1.953,-19.531,-22.949,-5.859,0.000
1627808078.106,-33.203,-18.555,-26.367,-43.945,0.000
1627808078.110,-51.270,-18.066,-28.320,-62.012,0.000
1627808078.114,-16.602,-11.719,-26.855,-31.250,0.000
1627808078.118,2.930,-8.301,-27.832,-6.836,0.000
1627808078.122,-28.320,-10.742,-27.344,-39.551,0.000
1627808078.126,-60.059,-19.531,-32.227,-83.496,0.000
1627808078.130,-40.039,-20.996,-33.203,-57.617,0.000
1627808078.134,-11.230,-12.695,-27.344,-12.207,0.000
1627808078.138,-31.250,-12.207,-27.832,-31.738,0.000
1627808078.142,-61.035,-20.996,-30.762,-75.684,0.000
1627808078.145,-43.945,-20.020,-25.879,-56.641,0.000
1627808078.149,-7.324,-14.160,-19.043,-2.441,0.000
1627808078.153,-18.555,-16.602,-18.066,-2.930,0.000
1627808078.157,-57.617,-21.484,-23.438,-54.199,0.000
1627808078.161,-62.500,-22.461,-27.832,-65.918,0.000
1627808078.165,-30.762,-21.973,-21.973,-20.020,0.000
1627808078.169,-27.344,-27.832,-21.973,-5.859,0.000
1627808078.173,-55.176,-24.414,-26.855,-43.945,0.000
1627808078.177,-57.617,-23.926,-26.855,-63.477,0.000
1627808078.181,-20.996,-22.949,-26.855,-25.879,0.000
1627808078.185,3.418,-15.625,-21.973,6.348,0.000
1627808078.188,-23.926,-16.602,-21.484,-23.438,0.000
1627808078.192,-47.363,-15.137,-24.902,-56.152,0.000
1627808078.196,-23.438,-15.137,-24.902,-31.738,0.000
1627808078.200,9.277,-10.742,-18.066,8.301,0.000
1627808078.204,-6.348,-8.789,-18.555,-5.371,0.000
1627808078.208,-50.293,-17.090,-22.949,-51.758,0.000
1627808078.212,-41.992,-15.625,-23.926,-47.852,0.000
1627808078.216,-6.836,-11.230,-22.461,-3.418,0.000
1627808078.220,-6.348,-14.160,-20.020,-3.906,0.000
1627808078.224,-39.551,-20.020,-21.973,-48.340,0.000
1627808078.227,-42.969,-16.113,-23.438,-60.059,0.000
1627808078.231,0.977,-5.859,-24.414,-16.113,0.000
1627808078.235,11.230,-10.742,-24.902,3.418,0.000
1627808078.239,-15.137,-13.672,-22.949,-31.738,0.000
1627808078.243,-33.203,-9.766,-20.508,-59.082,0.000
1627808078.247,-8.301,-8.789,-14.648,-26.855,0.000
1627808078.251,16.113,-7.324,-13.184,8.301,0.000
1627808078.255,-10.742,-6.836,-19.531,-16.602,0.000
1627808078.259,-40.527,-11.230,-22.461,-59.082,0.000
1627808078.263,-26.367,-19.043,-20.020,-47.363,0.000
1627808078.267,7.812,-16.113,-14.160,-0.977,0.000
1627808078.270,-8.789,-10.742,-13.672,-7.812,0.000
1627808078.274,-51.270,-12.695,-18.555,-56.152,0.000
1627808078.278,-48.340,-12.207,-20.020,-54.688,0.000
1627808078.282,-8.301,-10.742,-16.602,-1.953,0.000
1627808078.286,3.418,-9.766,-15.625,9.277,0.000
1627808078.290,-30.762,-15.137,-18.066,-30.273,0.000
1627808078.294,-43.457,-20.508,-18.555,-46.387,0.000
1627808078.298,-4.883,-13.184,-18.066,-6.348,0.000
1627808078.302,16.602,-2.930,-16.602,22.949,0.000
1627808078.306,-16.113,-11.719,-16.113,-16.113,0.000
1627808078.310,-35.645,-18.066,-14.648,-46.875,0.000
1627808078.313,-7.812,-15.625,-11.230,-15.137,0.000
1627808078.317,10.254,-20.996,-10.742,18.555,0.000
1627808078.321,-20.020,-25.391,-13.672,1.953,0.000
1627808078.325,-51.758,-22.949,-13.184,-33.203,0.000
1627808078.329,-35.645,-23.438,-15.137,-22.949,0.000
1627808078.333,-7.324,-21.973,-16.602,18.555,0.000
1627808078.337,-26.855,-29.785,-17.578,6.836,0.000
1627808078.341,-66.406,-35.645,-18.555,-41.016,0.000
1627808078.345,-60.059,-29.297,-15.137,-43.457,0.000
1627808078.349,-17.090,-23.926,-16.113,0.977,0.000
1627808078.353,-11.230,-28.320,-15.625,14.160,0.000
1627808078.356,-43.457,-29.785,-14.160,-26.367,0.000
1627808078.360,-47.852,-22.461,-14.160,-42.969,0.000
1627808078.364,-12.695,-15.625,-9.277,-3.906,0.000
1627808078.368,-0.488,-14.648,-9.766,20.508,0.000
1627808078.372,-29.785,-20.508,-13.184,-11.230,0.000
1627808078.376,-56.641,-25.391,-13.672,-49.316,0.000
1627808078.380,-37.109,-26.855,-16.113,-30.762,0.000
1627808078.384,-9.277,-26.855,-14.648,2.930,0.000
1627808078.388,-29.785,-26.855,-15.137,-14.648,0.000
1627808078.392,-65.918,-28.320,-21.484,-62.500,0.000
1627808078.395,-46.387,-21.973,-17.090,-46.387,0.000
1627808078.399,-4.883,-13.672,-11.230,6.348,0.000
1627808078.403,-16.602,-16.602,-10.742,-0.977,0.000
1627808078.407,-54.688,-26.855,-19.531,-54.688,0.000
1627808078.411,-56.641,-26.855,-18.555,-60.547,0.000
1627808078.415,-21.484,-23.926,-14.160,-9.277,0.000
1627808078.419,-9.277,-20.508,-16.113,8.789,0.000
1627808078.423,-40.527,-18.066,-14.648,-34.668,0.000
1627808078.427,-57.617,-17.578,-19.531,-60.547,0.000
1627808078.431,-26.367,-17.578,-21.484,-24.902,0.000
1627808078.435,-2.441,-14.160,-20.020,4.395,0.000
1627808078.438,-30.762,-18.066,-21.973,-26.367,0.000
1627808078.442,-57.129,-15.137,-20.996,-62.012,0.000
1627808078.446,-32.227,-10.254,-21.973,-41.992,0.000
1627808078.450,-1.953,-10.742,-22.949,-0.488,0.000
1627808078.454,-14.648,-10.742,-21.973,-13.672,0.000
1627808078.458,-43.945,-13.672,-28.320,-57.129,0.000
1627808078.462,-30.762,-10.254,-30.273,-49.805,0.000
1627808078.466,7.812,-5.859,-26.855,-7.812,0.000
1627808078.470,1.465,-9.277,-26.367,-9.277,0.000
1627808078.474,-39.551,-14.160,-31.738,-57.617,0.000
1627808078.478,-52.246,-21.973,-30.762,-75.684,0.000
1627808078.481,-16.113,-14.160,-27.344,-27.832,0.000
1627808078.485,-3.418,-10.254,-26.855,-1.465,0.000
1627808078.489,-32.715,-14.648,-22.949,-33.691,0.000
1627808078.493,-43.945,-12.695,-19.043,-58.594,0.000
1627808078.497,-13.184,-12.695,-18.066,-22.461,0.000
1627808078.501,18.066,-10.742,-15.137,11.719,0.000
1627808078.505,-0.977,-8.301,-12.207,-11.230,0.000
1627808078.509,-30.762,-15.625,-12.695,-47.852,0.000
1627808078.513,-12.695,-14.648,-7.324,-28.809,0.000
1627808078.517,20.020,-3.906,-3.906,18.066,0.000
1627808078.520,5.859,-5.859,-8.301,7.812,0.000
1627808078.524,-34.668,-16.602,-11.719,-39.062,0.000
1627808078.528,-38.574,-18.066,-15.625,-46.387,0.000
1627808078.532,-2.930,-15.137,-15.625,-1.953,0.000
1627808078.536,-3.906,-15.137,-17.090,4.395,0.000
1627808078.540,-41.992,-20.508,-21.973,-40.527,0.000
1627808078.544,-54.688,-23.926,-20.020,-58.594,0.000
1627808078.548,-26.855,-20.020,-17.578,-22.949,0.000
1627808078.552,-12.695,-23.926,-20.996,-6.348,0.000
1627808078.556,-47.363,-31.738,-24.414,-42.480,0.000
1627808078.560,-67.871,-27.832,-21.484,-63.477,0.000
1627808078.563,-36.621,-20.508,-19.531,-31.738,0.000
1627808078.567,-9.277,-22.461,-18.066,2.930,0.000
1627808078.571,-28.809,-26.855,-17.578,-18.066,0.000
1627808078.575,-57.617,-30.762,-20.996,-61.035,0.000
1627808078.579,-40.039,-24.902,-20.996,-43.945,0.000
1627808078.583,1.465,-6.348,-16.602,6.836,0.000
1627808078.587,-6.348,-6.836,-17.090,0.977,0.000
1627808078.591,-46.875,-22.949,-21.484,-54.199,0.000
1627808078.595,-41.992,-26.367,-17.090,-55.664,0.000
1627808078.599,2.930,-14.160,-7.324,0.488,0.000
1627808078.603,6.348,-8.301,-7.324,7.812,0.000
1627808078.606,-37.109,-17.578,-14.160,-40.039,0.000
1627808078.610,-51.758,-26.367,-16.602,-59.082,0.000
1627808078.614,-21.973,-23.438,-13.184,-18.555,0.000
1627808078.618,-2.930,-15.137,-12.695,7.324,0.000
1627808078.622,-28.320,-14.648,-21.484,-25.391,0.000
1627808078.626,-54.688,-17.578,-22.461,-58.105,0.000
1627808078.630,-33.691,-15.625,-17.090,-35.156,0.000
1627808078.634,-6.348,-18.066,-19.043,-2.441,0.000
1627808078.638,-27.832,-28.320,-18.066,-20.996,0.000
1627808078.642,-54.688,-21.973,-13.672,-54.688,0.000
1627808078.646,-33.203,-12.207,-12.207,-36.621,0.000
1627808078.649,3.906,-10.254,-12.695,12.207,0.000
1627808078.653,-0.488,-10.742,-10.254,15.137,0.000
1627808078.657,-39.062,-21.484,-16.602,-31.250,0.000
1627808078.661,-35.645,-19.043,-17.578,-33.691,0.000
1627808078.665,4.883,-14.648,-12.207,12.695,0.000
1627808078.669,10.742,-11.230,-10.254,27.344,0.000
1627808078.673,-20.508,-11.719,-11.230,-13.672,0.000
1627808078.677,-34.180,-7.812,-11.719,-37.109,0.000
1627808078.681,2.441,-0.977,-2.441,4.395,0.000
1627808078.685,23.438,-6.836,-0.977,32.715,0.000
1627808078.688,-10.742,-17.578,-10.254,0.488,0.000
1627808078.692,-33.691,-16.113,-13.672,-31.738,0.000
1627808078.696,-8.789,-13.672,-9.277,-9.766,0.000
1627808078.700,19.043,-7.324,-2.930,35.156,0.000
1627808078.704,-0.977,-9.766,-6.836,20.020,0.000
1627808078.708,-38.574,-20.508,-13.672,-34.180,0.000
1627808078.712,-28.320,-20.508,-17.090,-29.785,0.000
1627808078.716,5.371,-12.695,-13.672,16.113,0.000
1627808078.720,-1.465,-15.137,-13.184,14.160,0.000
1627808078.724,-32.715,-16.113,-16.602,-28.320,0.000
1627808078.728,-39.551,-15.137,-12.207,-39.551,0.000
1627808078.731,-3.418,-17.090,-6.836,-1.953,0.000
1627808078.735,13.184,-15.137,-2.930,21.484,0.000
1627808078.739,-24.902,-20.508,-7.812,-20.996,0.000
1627808078.743,-54.199,-27.832,-10.254,-57.129,0.000
1627808078.747,-29.297,-27.344,-6.836,-25.879,0.000
1627808078.751,0.488,-21.484,-6.348,7.324,0.000
1627808078.755,-27.344,-23.926,-11.230,-20.020,0.000
1627808078.759,-57.129,-26.367,-13.672,-62.012,0.000
1627808078.763,-27.344,-16.602,-6.836,-41.016,0.000
1627808078.767,8.789,-10.742,-2.930,4.883,0.000
1627808078.771,-2.930,-12.207,-6.348,-3.906,0.000
1627808078.774,-39.062,-17.090,-13.672,-51.270,0.000
1627808078.778,-34.668,-22.461,-14.160,-49.316,0.000
1627808078.782,-6.836,-22.949,-14.648,-5.859,0.000
1627808078.786,-10.742,-22.949,-11.230,1.465,0.000
1627808078.790,-44.922,-27.344,-10.254,-44.922,0.000
1627808078.794,-54.688,-24.902,-11.719,-63.965,0.000
1627808078.798,-26.855,-21.484,-10.254,-22.949,0.000
1627808078.802,-14.160,-21.973,-7.324,-1.953,0.000
1627808078.806,-41.016,-22.461,-8.301,-36.621,0.000
1627808078.810,-62.500,-22.949,-12.695,-65.918,0.000
1627808078.813,-33.203,-22.461,-10.254,-34.180,0.000
1627808078.817,-8.301,-20.020,-5.859,4.395,0.000
1627808078.821,-36.133,-21.973,-10.742,-18.555,0.000
1627808078.825,-62.500,-27.832,-18.066,-61.035,0.000
1627808078.829,-47.852,-28.809,-19.043,-45.898,0.000
1627808078.833,-9.766,-20.996,-12.207,0.977,0.000
1627808078.837,-15.137,-21.973,-12.695,-4.883,0.000
1627808078.841,-54.199,-30.273,-16.113,-50.293,0.000
1627808078.845,-53.711,-27.832,-11.230,-54.199,0.000
1627808078.849,-11.230,-19.043,-5.859,-6.836,0.000
1627808078.853,-1.953,-16.113,-8.789,8.301,0.000
1627808078.856,-38.574,-20.020,-12.695,-34.668,0.000
1627808078.860,-55.664,-25.391,-11.230,-61.523,0.000
1627808078.864,-24.902,-24.902,-12.695,-22.949,0.000
1627808078.868,-1.953,-25.879,-9.766,10.254,0.000
1627808078.872,-26.367,-22.949,-4.395,-16.113,0.000
1627808078.876,-51.758,-24.902,-11.230,-54.688,0.000
1627808078.880,-22.949,-22.461,-6.836,-23.926,0.000
1627808078.884,10.742,-17.090,-1.953,23.926,0.000
1627808078.888,-11.230,-20.508,-7.324,0.000,0.000
1627808078.892,-41.504,-20.996,-6.836,-38.086,0.000
1627808078.896,-25.391,-17.578,-9.277,-26.855,0.000
1627808078.899,11.230,-15.137,-8.789,18.555,0.000
1627808078.903,2.930,-20.996,-2.930,18.066,0.000
1627808078.907,-32.227,-21.973,-7.324,-29.297,0.000
1627808078.911,-34.180,-18.555,-17.090,-48.340,0.000
1627808078.915,-1.465,-13.672,-12.695,-8.301,0.000
1627808078.919,9.277,-11.230,-11.230,13.672,0.000
1627808078.923,-20.996,-12.207,-19.043,-27.832,0.000
1627808078.927,-41.504,-16.113,-21.484,-58.105,0.000
1627808078.931,-7.324,-15.137,-15.137,-20.996,0.000
1627808078.935,22.949,-5.859,-14.648,17.090,0.000
1627808078.939,-7.812,-7.812,-16.602,-14.160,0.000
1627808078.942,-38.086,-16.602,-19.043,-59.570,0.000
1627808078.946,-19.531,-15.137,-17.578,-35.645,0.000
1627808078.950,4.883,-12.207,-13.184,3.418,0.000
1627808078.954,-14.160,-14.160,-16.113,-15.625,0.000
1627808078.958,-49.316,-11.230,-21.973,-58.105,0.000
1627808078.962,-46.387,-19.043,-24.414,-57.129,0.000
1627808078.966,-11.719,-19.531,-21.484,-15.137,0.000
1627808078.970,-14.648,-22.949,-21.973,-18.066,0.000
1627808078.974,-54.688,-27.832,-26.367,-63.965,0.000
1627808078.978,-55.664,-19.043,-23.438,-70.312,0.000
1627808078.981,-7.812,-14.648,-19.531,-24.414,0.000
1627808078.985,7.812,-18.555,-20.996,1.465,0.000
1627808078.989,-31.250,-21.973,-27.832,-34.180,0.000
1627808078.993,-51.270,-22.949,-27.832,-62.500,0.000
1627808078.997,-14.648,-13.184,-21.973,-20.508,0.000
1627808079.001,14.160,-4.395,-20.508,16.602,0.000
1627808079.005,-18.066,-9.277,-20.996,-12.207,0.000
1627808079.009,-61.035,-20.508,-23.438,-56.152,0.000
1627808079.013,-49.316,-26.855,-24.414,-38.574,0.000
1627808079.017,-7.812,-20.020,-15.137,13.184,0.000
1627808079.021,-13.184,-19.531,-12.207,3.906,0.000
1627808079.024,-47.852,-23.926,-16.602,-42.969,0.000
1627808079.028,-40.039,-18.555,-18.555,-43.945,0.000
1627808079.032,-0.977,-14.160,-19.043,-5.371,0.000
1627808079.036,2.930,-12.695,-19.043,2.930,0.000
1627808079.040,-32.227,-14.648,-23.926,-34.668,0.000
1627808079.044,-43.457,-20.508,-28.320,-56.152,0.000
1627808079.048,-5.371,-17.090,-19.043,-9.766,0.000
1627808079.052,15.625,-6.836,-11.719,22.949,0.000
1627808079.056,-21.484,-10.742,-19.531,-16.113,0.000
1627808079.060,-45.898,-19.531,-21.484,-49.316,0.000
1627808079.064,-10.254,-19.043,-14.160,-20.996,0.000
1627808079.067,22.461,-13.184,-15.137,20.020,0.000
1627808079.071,-9.766,-20.020,-23.438,-2.441,0.000
1627808079.075,-46.387,-25.879,-24.902,-47.852,0.000
1627808079.079,-25.879,-17.578,-14.648,-26.855,0.000
1627808079.083,11.719,-6.836,-2.930,24.902,0.000
1627808079.087,3.906,-11.719,-4.395,18.555,0.000
1627808079.091,-33.203,-19.531,-11.230,-31.250,0.000
1627808079.095,-35.645,-18.555,-17.090,-40.527,0.000
1627808079.099,-0.977,-13.672,-15.137,1.465,0.000
1627808079.103,5.859,-14.648,-11.230,18.066,0.000
1627808079.107,-25.879,-20.020,-16.602,-24.414,0.000
1627808079.110,-43.945,-21.484,-20.996,-52.246,0.000
1627808079.114,-12.207,-16.113,-20.020,-15.625,0.000
1627808079.118,9.766,-14.648,-17.090,14.160,0.000
1627808079.122,-23.438,-18.066,-17.578,-19.043,0.000
1627808079.126,-53.223,-22.949,-20.996,-59.570,0.000
1627808079.130,-25.391,-22.461,-16.602,-33.203,0.000
1627808079.134,10.742,-17.090,-8.301,12.207,0.000
1627808079.138,-8.301,-19.531,-8.789,-6.348,0.000
1627808079.142,-48.340,-22.949,-18.066,-51.270,0.000
1627808079.146,-35.156,-19.043,-18.066,-41.504,0.000
1627808079.149,2.441,-17.578,-11.719,4.883,0.000
1627808079.153,-6.836,-21.484,-15.137,6.348,0.000
1627808079.157,-42.480,-28.320,-20.996,-37.598,0.000
1627808079.161,-46.875,-32.715,-20.020,-53.711,0.000
1627808079.165,-15.137,-31.250,-17.578,-15.137,0.000
1627808079.169,-0.488,-25.391,-13.672,5.371,0.000
1627808079.173,-32.715,-21.484,-16.113,-33.691,0.000
1627808079.177,-53.711,-28.809,-19.531,-64.941,0.000
1627808079.181,-21.973,-29.297,-15.137,-25.391,0.000
1627808079.185,4.883,-22.461,-9.766,14.648,0.000
1627808079.189,-18.066,-20.020,-8.789,-12.207,0.000
1627808079.192,-41.504,-20.508,-15.137,-49.316,0.000
1627808079.196,-20.508,-16.602,-16.113,-29.297,0.000
1627808079.200,7.812,-19.531,-13.672,7.324,0.000
1627808079.204,-6.348,-15.137,-12.695,-1.953,0.000
1627808079.208,-39.062,-13.184,-14.160,-41.992,0.000
1627808079.212,-31.738,-20.020,-14.648,-36.621,0.000
1627808079.216,10.742,-9.277,-5.371,13.672,0.000
1627808079.220,11.230,-3.418,-0.977,21.973,0.000
1627808079.224,-30.762,-11.719,-11.719,-25.879,0.000
1627808079.228,-36.621,-16.602,-15.137,-51.270,0.000
1627808079.232,4.883,-6.836,-10.254,-5.371,0.000
1627808079.235,23.926,2.441,-9.766,24.414,0.000
1627808079.239,-6.836,-2.441,-11.719,-15.625,0.000
1627808079.243,-30.273,-13.672,-15.137,-46.387,0.000
1627808079.247,-3.418,-10.254,-14.160,-15.625,0.000
1627808079.251,22.949,0.000,-9.766,25.879,0.000
1627808079.255,-3.906,-9.277,-14.648,0.000,0.000
1627808079.259,-36.133,-19.043,-20.996,-48.828,0.000
1627808079.263,-19.043,-14.648,-19.531,-34.180,0.000
1627808079.267,16.113,-3.418,-12.207,10.254,0.000
1627808079.271,7.324,-0.488,-13.672,0.977,0.000
1627808079.274,-25.879,-7.324,-14.648,-37.598,0.000
1627808079.278,-26.367,-11.230,-11.719,-36.621,0.000
1627808079.282,8.301,-5.371,-10.254,4.883,0.000
1627808079.286,13.672,-1.465,-12.207,14.648,0.000
1627808079.290,-22.949,-9.766,-15.625,-24.414,0.000
1627808079.294,-37.598,-14.160,-17.578,-43.945,0.000
1627808079.298,-4.883,-9.766,-14.648,-3.418,0.000
1627808079.302,9.766,-12.695,-13.672,20.996,0.000
1627808079.306,-28.320,-21.484,-18.555,-19.531,0.000
1627808079.310,-54.688,-23.926,-17.090,-48.828,0.000
1627808079.314,-25.391,-26.367,-16.113,-15.625,0.000
1627808079.317,7.812,-21.973,-15.137,23.438,0.000
1627808079.321,-18.066,-21.484,-17.578,0.977,0.000
1627808079.325,-50.781,-24.414,-20.508,-41.992,0.000
1627808079.329,-28.320,-23.438,-16.602,-30.762,0.000
1627808079.333,10.254,-20.996,-14.648,15.137,0.000
1627808079.337,-0.977,-18.066,-12.695,14.160,0.000
1627808079.341,-43.457,-20.996,-15.625,-34.180,0.000
1627808079.345,-46.875,-27.832,-17.578,-41.016,0.000
1627808079.349,-10.254,-26.367,-13.184,7.812,0.000
1627808079.353,-3.418,-19.531,-12.207,21.973,0.000
1627808079.357,-34.668,-18.066,-14.160,-21.973,0.000
1627808079.360,-51.758,-21.973,-17.578,-47.852,0.000
1627808079.364,-25.391,-20.508,-18.066,-10.742,0.000
1627808079.368,-5.859,-16.113,-15.625,17.578,0.000
1627808079.372,-31.250,-18.555,-13.672,-16.602,0.000
1627808079.376,-55.176,-26.367,-15.137,-54.199,0.000
1627808079.380,-29.785,-20.020,-15.137,-31.250,0.000
1627808079.384,-1.465,-20.020,-14.648,8.789,0.000
1627808079.388,-23.926,-23.926,-18.066,-6.836,0.000
1627808079.392,-55.176,-20.508,-22.461,-46.875,0.000
1627808079.396,-39.062,-20.508,-23.438,-37.109,0.000
1627808079.399,-4.395,-19.531,-20.996,9.766,0.000
1627808079.403,-4.395,-16.113,-17.090,11.719,0.000
1627808079.407,-31.738,-17.578,-16.113,-30.273,0.000
1627808079.411,-32.227,-24.902,-13.672,-39.062,0.000
1627808079.415,4.883,-26.367,-12.695,7.324,0.000
1627808079.419,13.184,-21.973,-13.184,26.855,0.000
1627808079.423,-21.973,-21.973,-16.113,-19.531,0.000
1627808079.427,-40.527,-21.484,-21.484,-49.316,0.000
1627808079.431,-12.207,-12.695,-18.066,-10.742,0.000
1627808079.435,8.789,-4.883,-14.648,27.344,0.000
1627808079.439,-21.973,-14.648,-20.996,-7.812,0.000
1627808079.442,-51.758,-22.461,-25.391,-55.176,0.000
1627808079.446,-23.926,-18.066,-20.508,-32.227,0.000
1627808079.450,13.672,-12.207,-13.184,18.066,0.000
1627808079.454,-6.836,-14.160,-16.602,2.930,0.000
1627808079.458,-46.387,-23.926,-20.996,-49.805,0.000
1627808079.462,-36.133,-20.996,-17.578,-40.527,0.000
1627808079.466,9.277,-6.348,-14.648,12.695,0.000
1627808079.470,4.395,-8.301,-17.090,11.719,0.000
1627808079.474,-41.992,-16.113,-19.043,-34.180,0.000
1627808079.478,-50.781,-17.578,-21.484,-51.758,0.000
1627808079.482,-17.578,-13.184,-15.625,-12.207,0.000
1627808079.485,-7.812,-12.207,-7.324,16.113,0.000
1627808079.489,-40.527,-16.602,-12.207,-21.484,0.000
1627808079.493,-59.570,-21.484,-19.043,-52.734,0.000
1627808079.497,-25.879,-18.066,-12.207,-20.020,0.000
1627808079.501,4.395,-10.742,-8.301,15.625,0.000
1627808079.505,-18.555,-11.719,-14.648,-6.836,0.000
1627808079.509,-54.199,-20.020,-21.484,-51.758,0.000
1627808079.513,-38.574,-21.973,-20.508,-40.039,0.000
1627808079.517,4.395,-12.207,-15.137,13.672,0.000
1627808079.521,-2.930,-10.742,-11.230,13.672,0.000
1627808079.525,-37.109,-23.438,-13.184,-40.039,0.000
1627808079.528,-30.273,-22.461,-16.113,-45.410,0.000
1627808079.532,3.906,-18.555,-13.672,4.395,0.000
1627808079.536,7.812,-13.672,-12.695,13.184,0.000
1627808079.540,-30.273,-19.043,-17.578,-35.156,0.000
1627808079.544,-49.805,-23.926,-19.531,-56.152,0.000
1627808079.548,-18.555,-17.090,-18.555,-15.137,0.000
1627808079.552,3.906,-14.160,-15.137,14.648,0.000
1627808079.556,-21.484,-18.555,-16.113,-18.066,0.000
1627808079.560,-41.504,-16.113,-22.461,-50.781,0.000
1627808079.564,-13.672,-11.230,-23.438,-22.461,0.000
1627808079.567,17.090,-7.324,-23.438,15.625,0.000
1627808079.571,-9.277,-14.648,-30.762,-12.695,0.000
1627808079.575,-46.875,-23.926,-29.297,-57.617,0.000
1627808079.579,-26.367,-17.578,-16.113,-36.133,0.000
1627808079.583,9.766,-14.648,-11.230,14.648,0.000
1627808079.587,-2.930,-12.695,-7.812,16.602,0.000
1627808079.591,-36.621,-13.184,-5.371,-26.855,0.000
1627808079.595,-30.762,-11.719,-12.207,-35.156,0.000
1627808079.599,2.441,-6.348,-16.113,4.883,0.000
1627808079.603,7.324,-7.812,-15.137,14.648,0.000
1627808079.607,-30.762,-16.602,-21.484,-28.320,0.000
1627808079.610,-50.781,-17.578,-23.926,-56.641,0.000
1627808079.614,-14.648,-12.207,-20.996,-20.020,0.000
1627808079.618,2.441,-20.508,-23.926,15.137,0.000
1627808079.622,-27.344,-22.461,-23.438,-17.090,0.000
1627808079.626,-51.758,-24.902,-19.043,-57.129,0.000
1627808079.630,-33.691,-31.738,-15.625,-33.203,0.000
1627808079.634,-2.930,-23.438,-16.113,9.766,0.000
1627808079.638,-13.672,-18.066,-20.508,-3.418,0.000
1627808079.642,-42.480,-20.020,-23.438,-45.410,0.000
1627808079.646,-34.180,-19.531,-27.832,-39.062,0.000
1627808079.650,3.418,-18.066,-23.926,6.348,0.000
1627808079.653,-5.371,-20.020,-20.996,8.789,0.000
1627808079.657,-46.387,-23.926,-25.391,-38.086,0.000
1627808079.661,-50.781,-25.879,-23.926,-52.246,0.000
1627808079.665,-20.020,-20.020,-20.020,-10.254,0.000
1627808079.669,-6.836,-17.090,-18.066,10.742,0.000
1627808079.673,-36.133,-24.902,-19.043,-31.738,0.000
1627808079.677,-57.129,-22.949,-18.555,-61.523,0.000
1627808079.681,-29.297,-18.066,-12.695,-26.367,0.000
1627808079.685,-4.395,-20.996,-16.113,-1.953,0.000
1627808079.689,-27.344,-20.508,-21.973,-30.273,0.000
1627808079.693,-53.711,-23.438,-25.391,-66.406,0.000
1627808079.696,-35.645,-21.973,-22.949,-50.781,0.000
1627808079.700,-8.301,-21.484,-23.438,-7.324,0.000
1627808079.704,-23.438,-23.926,-28.320,-16.602,0.000
1627808079.708,-57.129,-23.926,-28.320,-64.941,0.000
1627808079.712,-47.363,-20.996,-23.438,-62.012,0.000
1627808079.716,-4.395,-11.230,-15.137,-8.789,0.000
1627808079.720,-4.883,-15.625,-20.996,-0.977,0.000
1627808079.724,-38.574,-23.926,-30.273,-46.387,0.000
1627808079.728,-49.316,-26.367,-33.203,-67.383,0.000
1627808079.732,-9.766,-15.137,-23.926,-20.508,0.000
1627808079.735,9.277,-8.789,-20.020,6.348,0.000
1627808079.739,-25.879,-16.602,-22.461,-29.785,0.000
1627808079.743,-42.480,-20.996,-20.996,-59.082,0.000
1627808079.747,-5.859,-16.113,-18.555,-23.438,0.000
1627808079.751,20.508,-8.789,-15.625,20.508,0.000
1627808079.755,-10.742,-7.812,-20.508,-5.859,0.000
1627808079.759,-44.434,-14.648,-25.879,-52.246,0.000
1627808079.763,-23.926,-19.531,-23.926,-39.062,0.000
1627808079.767,9.277,-18.555,-23.438,9.766,0.000
1627808079.771,0.488,-15.137,-23.438,7.324,0.000
1627808079.775,-33.691,-16.602,-27.832,-40.527,0.000
1627808079.778,-37.109,-17.578,-25.391,-44.434,0.000
1627808079.782,0.488,-7.812,-18.555,6.836,0.000
1627808079.786,11.719,-8.301,-16.113,21.484,0.000
1627808079.790,-25.391,-16.602,-15.625,-24.902,0.000
1627808079.794,-41.504,-20.996,-19.043,-50.293,0.000
1627808079.798,-6.348,-19.531,-16.113,-10.742,0.000
1627808079.802,13.672,-10.742,-12.695,17.578,0.000
1627808079.806,-22.461,-10.254,-18.555,-18.066,0.000
1627808079.810,-46.387,-11.230,-18.066,-50.293,0.000
1627808079.814,-19.531,-12.695,-10.742,-23.926,0.000
1627808079.818,7.324,-10.254,-7.812,13.672,0.000
1627808079.821,-11.230,-14.160,-12.207,-2.441,0.000
1627808079.825,-48.828,-20.996,-15.625,-45.410,0.000
1627808079.829,-31.250,-15.137,-18.066,-36.133,0.000
1627808079.833,6.836,-5.859,-13.672,7.324,0.000
1627808079.837,-6.836,-7.812,-12.207,5.859,0.000
1627808079.841,-41.016,-8.789,-19.043,-36.621,0.000
1627808079.845,-42.969,-14.648,-19.531,-46.875,0.000
1627808079.849,-4.883,-13.184,-13.672,0.977,0.000
1627808079.853,2.930,-12.207,-11.719,17.578,0.000
1627808079.857,-33.203,-17.090,-11.719,-26.855,0.000
1627808079.860,-51.270,-19.531,-17.090,-51.270,0.000
1627808079.864,-19.043,-19.531,-16.602,-13.184,0.000
1627808079.868,5.371,-15.625,-11.230,22.461,0.000
1627808079.872,-23.438,-14.160,-13.184,-6.836,0.000
1627808079.876,-52.246,-17.090,-16.113,-44.434,0.000
1627808079.880,-30.273,-18.555,-15.137,-20.508,0.000
1627808079.884,2.930,-20.020,-14.160,15.625,0.000
1627808079.888,-17.090,-23.926,-15.625,-2.930,0.000
1627808079.892,-48.340,-20.020,-15.625,-43.457,0.000
1627808079.896,-34.180,-7.812,-18.066,-31.738,0.000
1627808079.900,0.977,-7.324,-16.113,12.695,0.000
1627808079.903,2.441,-11.230,-12.695,18.066,0.000
1627808079.907,-37.598,-19.531,-22.461,-30.762,0.000
1627808079.911,-46.387,-20.020,-24.414,-49.316,0.000
1627808079.915,-13.184,-11.230,-18.066,-4.883,0.000
1627808079.919,-4.883,-14.160,-16.602,15.137,0.000
1627808079.923,-33.691,-18.066,-20.996,-24.414,0.000
1627808079.927,-47.363,-15.137,-23.926,-49.805,0.000
1627808079.931,-14.648,-8.789,-16.602,-16.113,0.000
1627808079.935,11.230,-10.742,-12.695,17.090,0.000
1627808079.939,-21.484,-17.578,-18.066,-4.883,0.000
1627808079.943,-53.223,-19.531,-20.508,-41.992,0.000
1627808079.946,-24.902,-17.578,-16.602,-20.508,0.000
1627808079.950,8.789,-15.625,-12.207,23.438,0.000
1627808079.954,-14.160,-20.508,-15.625,5.859,0.000
1627808079.958,-47.363,-19.531,-19.043,-41.504,0.000
1627808079.962,-45.410,-21.484,-20.996,-43.945,0.000
1627808079.966,-12.695,-19.531,-21.973,-2.930,0.000
1627808079.970,-4.883,-14.648,-20.508,0.977,0.000
1627808079.974,-30.762,-19.531,-24.414,-42.480,0.000
1627808079.978,-34.180,-26.855,-28.809,-53.711,0.000
1627808079.982,7.324,-17.578,-21.484,-4.883,0.000
1627808079.986,23.926,-10.254,-13.672,26.855,0.000
1627808079.989,-14.648,-12.207,-13.672,-3.418,0.000
1627808079.993,-45.898,-20.508,-15.137,-41.016,0.000
1627808079.997,-30.762,-23.926,-15.625,-19.043,0.000
1627808080.001,-12.207,-23.438,-16.602,9.766,0.000
1627808080.005,-35.645,-20.996,-16.113,-11.230,0.000
1627808080.009,-61.523,-17.578,-18.066,-46.387,0.000
1627808080.013,-37.598,-19.531,-16.602,-34.180,0.000
1627808080.017,3.418,-13.672,-14.160,7.812,0.000
1627808080.021,-6.348,-12.695,-18.066,-5.859,0.000
1627808080.025,-41.016,-25.879,-23.438,-57.129,0.000
1627808080.028,-33.691,-24.414,-20.996,-55.664,0.000
1627808080.032,0.977,-13.184,-13.184,-6.348,0.000
1627808080.036,3.418,-8.789,-12.207,10.254,0.000
1627808080.040,-30.273,-15.137,-15.137,-32.227,0.000
1627808080.044,-42.969,-19.043,-20.020,-57.129,0.000
1627808080.048,-5.371,-14.648,-16.113,-16.602,0.000
1627808080.052,11.230,-16.113,-12.695,12.695,0.000
1627808080.056,-21.484,-25.879,-20.996,-25.391,0.000
1627808080.060,-44.434,-25.879,-22.949,-60.547,0.000
1627808080.064,-19.531,-19.531,-20.020,-30.762,0.000
1627808080.068,7.812,-16.602,-18.555,10.742,0.000
1627808080.071,-11.230,-15.625,-19.043,-5.371,0.000
1627808080.075,-44.434,-17.578,-20.996,-50.293,0.000
1627808080.079,-28.809,-14.648,-16.602,-44.434,0.000
1627808080.083,12.207,-12.207,-11.230,-0.488,0.000
1627808080.087,9.277,-8.789,-9.277,3.906,0.000
1627808080.091,-30.273,-8.301,-12.695,-38.086,0.000
1627808080.095,-39.551,-15.625,-17.090,-50.781,0.000
1627808080.099,0.488,-10.742,-11.719,-5.859,0.000
1627808080.103,11.719,-12.207,-14.648,14.160,0.000
1627808080.107,-17.578,-20.508,-22.461,-28.809,0.000
1627808080.111,-32.227,-15.137,-21.973,-57.617,0.000
1627808080.114,1.953,-12.695,-14.648,-21.484,0.000
1627808080.118,23.438,-13.672,-12.695,12.207,0.000
1627808080.122,-6.348,-12.207,-18.066,-14.648,0.000
1627808080.126,-31.250,-14.648,-21.973,-50.781,0.000
1627808080.130,-6.348,-8.301,-17.578,-22.461,0.000
1627808080.134,20.996,-7.324,-13.184,18.066,0.000
1627808080.138,2.441,-15.137,-13.184,-1.465,0.000
1627808080.142,-32.227,-20.020,-13.672,-43.457,0.000
1627808080.146,-29.785,-26.367,-15.137,-39.551,0.000
1627808080.150,3.906,-25.391,-12.207,0.977,0.000
1627808080.153,4.883,-20.996,-11.230,10.254,0.000
1627808080.157,-23.438,-17.578,-20.508,-29.297,0.000
1627808080.161,-30.762,-15.137,-22.949,-41.504,0.000
1627808080.165,-4.395,-17.578,-16.602,-2.441,0.000
1627808080.169,5.859,-19.043,-15.137,11.719,0.000
1627808080.173,-27.344,-21.973,-21.484,-31.738,0.000
1627808080.177,-49.316,-23.438,-24.902,-63.477,0.000
1627808080.181,-21.973,-23.438,-19.531,-33.691,0.000
1627808080.185,1.953,-22.461,-12.695,1.953,0.000
1627808080.189,-24.902,-27.344,-12.207,-18.555,0.000
1627808080.193,-55.664,-33.203,-13.672,-59.082,0.000
1627808080.196,-32.227,-25.879,-13.672,-36.133,0.000
1627808080.200,3.418,-24.414,-11.719,11.230,0.000
1627808080.204,-13.672,-28.809,-15.137,-1.465,0.000
1627808080.208,-46.387,-28.809,-18.066,-46.387,0.000
1627808080.212,-43.945,-32.715,-18.555,-50.293,0.000
1627808080.216,-12.695,-33.691,-19.531,-5.371,0.000
1627808080.220,-5.859,-25.391,-17.578,5.859,0.000
1627808080.224,-38.086,-24.902,-18.555,-34.668,0.000
1627808080.228,-48.828,-30.762,-21.484,-51.270,0.000
1627808080.232,-10.254,-28.320,-15.625,-12.207,0.000
1627808080.236,3.418,-23.926,-13.672,11.230,0.000
1627808080.239,-29.785,-25.879,-18.555,-23.926,0.000
1627808080.243,-52.734,-35.156,-17.578,-58.594,0.000
1627808080.247,-16.602,-21.484,-8.301,-22.949,0.000
1627808080.251,23.926,-2.930,-4.395,21.973,0.000
1627808080.255,0.488,-7.812,-14.160,-2.441,0.000
1627808080.259,-39.551,-20.996,-17.578,-42.969,0.000
1627808080.263,-22.461,-23.926,-7.812,-22.461,0.000
1627808080.267,10.742,-22.949,-7.812,20.996,0.000
1627808080.271,-2.930,-16.113,-14.648,11.719,0.000
1627808080.275,-32.715,-11.719,-16.602,-35.645,0.000
1627808080.279,-30.273,-15.137,-14.648,-40.527,0.000
1627808080.282,5.859,-13.184,-14.648,3.906,0.000
1627808080.286,2.441,-16.602,-16.113,10.742,0.000
1627808080.290,-40.527,-20.020,-19.043,-32.715,0.000
1627808080.294,-52.734,-18.555,-18.066,-52.246,0.000
1627808080.298,-14.648,-16.113,-13.184,-11.230,0.000
1627808080.302,6.348,-15.137,-9.766,23.438,0.000
1627808080.306,-26.367,-20.020,-10.742,-10.254,0.000
1627808080.310,-49.316,-18.555,-13.672,-41.992,0.000
1627808080.314,-21.973,-12.695,-11.230,-13.672,0.000
1627808080.318,2.930,-9.277,-10.742,18.555,0.000
1627808080.321,-21.484,-14.648,-13.672,-6.836,0.000
1627808080.325,-57.617,-25.391,-15.137,-55.664,0.000
1627808080.329,-43.945,-23.438,-13.184,-42.969,0.000
1627808080.333,-15.137,-20.996,-16.602,-2.441,0.000
1627808080.337,-24.902,-23.926,-22.949,-7.324,0.000
1627808080.341,-54.199,-24.414,-24.414,-42.480,0.000
1627808080.345,-52.246,-23.926,-21.973,-54.199,0.000
1627808080.349,-15.137,-18.555,-15.137,-13.184,0.000
1627808080.353,-4.395,-13.672,-13.184,8.301,0.000
1627808080.357,-38.086,-19.043,-21.484,-35.156,0.000
1627808080.361,-55.176,-22.949,-27.344,-64.453,0.000
1627808080.364,-23.438,-20.020,-24.414,-27.344,0.000
1627808080.368,-1.465,-18.555,-19.531,4.883,0.000
1627808080.372,-24.902,-17.578,-18.066,-22.949,0.000
1627808080.376,-52.246,-23.926,-20.508,-58.105,0.000
1627808080.380,-30.273,-26.855,-18.066,-31.738,0.000
1627808080.384,6.348,-20.996,-11.719,12.207,0.000
1627808080.388,-10.254,-19.531,-11.719,-3.418,0.000
1627808080.392,-48.828,-23.438,-20.996,-48.340,0.000
1627808080.396,-39.062,-23.438,-24.414,-43.457,0.000
1627808080.400,0.000,-19.043,-19.531,5.371,0.000
1627808080.404,7.324,-12.695,-20.508,19.043,0.000
1627808080.407,-22.461,-12.695,-23.438,-23.438,0.000
1627808080.411,-28.320,-14.160,-18.555,-38.086,0.000
1627808080.415,10.254,-11.230,-11.230,6.348,0.000
1627808080.419,18.066,-12.695,-12.207,22.461,0.000
1627808080.423,-21.973,-15.137,-15.625,-20.508,0.000
1627808080.427,-42.969,-14.160,-16.113,-50.781,0.000
1627808080.431,-12.695,-7.812,-13.184,-20.996,0.000
1627808080.435,11.230,-14.160,-15.137,9.277,0.000
1627808080.439,-17.090,-24.902,-17.578,-15.137,0.000
1627808080.443,-41.016,-18.555,-19.531,-49.805,0.000
1627808080.446,-23.438,-10.742,-21.973,-36.621,0.000
1627808080.450,-0.488,-10.742,-20.996,5.859,0.000
1627808080.454,-10.742,-13.184,-14.648,0.977,0.000
1627808080.458,-35.645,-11.230,-12.695,-45.410,0.000
1627808080.462,-33.691,-13.184,-16.602,-53.711,0.000
1627808080.466,1.953,-11.719,-13.672,-6.348,0.000
1627808080.470,7.812,-9.277,-14.648,5.859,0.000
1627808080.474,-34.180,-18.066,-21.973,-41.992,0.000
1627808080.478,-44.434,-20.020,-23.926,-57.129,0.000
1627808080.482,-10.742,-16.602,-21.973,-10.742,0.000
1627808080.486,-5.371,-18.555,-24.414,9.277,0.000
1627808080.489,-34.180,-19.531,-24.902,-24.414,0.000
1627808080.493,-46.875,-18.066,-20.020,-51.758,0.000
1627808080.497,-23.926,-20.020,-12.207,-20.996,0.000
1627808080.501,5.859,-16.113,-12.207,18.555,0.000
1627808080.505,-13.184,-13.672,-15.625,-1.465,0.000
1627808080.509,-51.758,-20.020,-20.996,-46.875,0.000
1627808080.513,-37.109,-19.531,-18.066,-32.715,0.000
1627808080.517,2.441,-18.066,-11.719,16.113,0.000
1627808080.521,-0.488,-10.742,-10.254,13.184,0.000
1627808080.525,-35.156,-14.648,-17.090,-33.203,0.000
1627808080.529,-35.645,-20.508,-20.020,-42.480,0.000
1627808080.532,3.906,-11.230,-12.207,1.465,0.000
1627808080.536,9.277,-5.859,-12.695,11.719,0.000
1627808080.540,-29.297,-10.742,-21.484,-32.715,0.000
1627808080.544,-46.387,-14.648,-23.926,-57.617,0.000
1627808080.548,-13.184,-7.812,-11.230,-15.625,0.000
1627808080.552,0.977,-7.324,-10.254,13.672,0.000
1627808080.556,-34.668,-16.113,-20.508,-27.344,0.000
1627808080.560,-53.711,-13.184,-20.508,-63.965,0.000
1627808080.564,-30.273,-14.648,-15.625,-31.738,0.000
1627808080.568,1.953,-14.160,-14.648,14.160,0.000
1627808080.572,-11.719,-15.137,-20.996,-9.766,0.000
1627808080.575,-38.574,-16.602,-19.531,-54.199,0.000
1627808080.579,-31.250,-16.113,-23.438,-45.410,0.000
1627808080.583,-1.953,-9.766,-26.367,6.348,0.000
1627808080.587,-4.883,-3.906,-22.461,13.672,0.000
1627808080.591,-38.574,-11.230,-24.902,-34.180,0.000
1627808080.595,-37.598,-10.254,-23.438,-40.039,0.000
1627808080.599,0.488,-5.371,-20.996,5.371,0.000
1627808080.603,6.348,-10.254,-26.367,19.043,0.000
1627808080.607,-24.902,-13.672,-28.809,-19.531,0.000
1627808080.611,-40.039,-10.742,-25.879,-46.387,0.000
1627808080.614,-13.672,-11.230,-20.996,-10.254,0.000
1627808080.618,6.348,-16.602,-15.137,21.484,0.000
1627808080.622,-21.973,-18.555,-17.090,-11.230,0.000
1627808080.626,-56.152,-19.531,-18.066,-48.828,0.000
1627808080.630,-32.227,-18.555,-16.602,-22.461,0.000
1627808080.634,0.000,-20.020,-22.461,14.648,0.000
1627808080.638,-18.066,-19.531,-25.879,-5.371,0.000
1627808080.642,-53.711,-20.996,-28.809,-51.758,0.000
1627808080.646,-49.805,-23.926,-30.762,-48.340,0.000
1627808080.650,-16.602,-18.066,-24.414,1.465,0.000
1627808080.654,-18.555,-21.973,-23.438,4.395,0.000
1627808080.657,-51.270,-31.250,-29.297,-41.992,0.000
1627808080.661,-58.105,-25.879,-26.367,-54.688,0.000
1627808080.665,-16.602,-19.531,-20.996,-12.695,0.000
1627808080.669,2.930,-22.461,-23.438,12.695,0.000
1627808080.673,-27.832,-27.832,-23.438,-19.043,0.000
1627808080.677,-52.246,-27.832,-23.926,-54.199,0.000
1627808080.681,-22.461,-21.484,-22.949,-28.320,0.000
1627808080.685,7.812,-17.578,-16.602,12.695,0.000
1627808080.689,-18.066,-17.090,-17.090,-7.812,0.000
1627808080.693,-44.922,-14.160,-19.531,-45.410,0.000
1627808080.697,-23.926,-12.207,-18.066,-27.832,0.000
1627808080.700,3.418,-17.090,-18.066,12.207,0.000
1627808080.704,-8.789,-14.160,-17.090,1.465,0.000
1627808080.708,-42.480,-13.672,-19.043,-42.480,0.000
1627808080.712,-41.992,-20.996,-21.973,-42.969,0.000
1627808080.716,-4.395,-16.602,-19.531,3.906,0.000
1627808080.720,0.488,-9.766,-16.602,12.207,0.000
1627808080.724,-35.156,-12.207,-23.926,-37.598,0.000
1627808080.728,-44.434,-18.555,-31.738,-60.059,0.000
1627808080.732,-6.836,-16.113,-27.832,-14.160,0.000
1627808080.736,9.766,-7.324,-20.020,14.648,0.000
1627808080.739,-20.020,-10.254,-18.555,-22.949,0.000
1627808080.743,-40.527,-18.066,-24.414,-51.758,0.000
1627808080.747,-11.230,-12.695,-21.973,-19.043,0.000
1627808080.751,15.625,-11.230,-14.648,21.973,0.000
1627808080.755,-9.277,-11.230,-15.137,2.930,0.000
1627808080.759,-44.434,-19.043,-26.855,-57.129,0.000
1627808080.763,-29.785,-19.531,-24.414,-46.387,0.000
1627808080.767,5.859,-11.230,-13.184,12.207,0.000
1627808080.771,0.000,-15.625,-14.648,7.812,0.000
1627808080.775,-41.992,-25.879,-17.578,-42.480,0.000
1627808080.779,-44.922,-26.367,-14.160,-50.293,0.000
1627808080.782,-4.395,-13.184,-12.207,-1.465,0.000
1627808080.786,1.465,-11.719,-11.719,19.531,0.000
1627808080.790,-36.621,-29.297,-13.672,-24.902,0.000
1627808080.794,-45.410,-31.250,-11.230,-45.410,0.000
1627808080.798,-10.742,-26.367,-8.301,-3.418,0.000
1627808080.802,5.859,-27.832,-8.789,26.855,0.000
1627808080.806,-20.996,-25.879,-13.184,-5.859,0.000
1627808080.810,-48.340,-20.020,-17.090,-46.387,0.000
1627808080.814,-24.902,-15.625,-16.113,-29.785,0.000
1627808080.818,7.324,-13.672,-11.719,11.230,0.000
1627808080.822,-11.230,-16.602,-12.207,-5.371,0.000
1627808080.825,-46.387,-20.020,-19.043,-52.246,0.000
1627808080.829,-35.156,-15.625,-15.625,-36.621,0.000
1627808080.833,4.883,-6.348,-11.230,18.066,0.000
1627808080.837,2.441,-11.719,-15.137,11.230,0.000
1627808080.841,-28.809,-18.066,-16.602,-36.621,0.000
1627808080.845,-30.273,-13.184,-15.137,-41.992,0.000
1627808080.849,6.836,-14.160,-13.672,-5.371,0.000
1627808080.853,20.020,-16.602,-14.648,4.395,0.000
1627808080.857,-14.648,-20.508,-20.020,-39.551,0.000
1627808080.861,-28.809,-17.578,-20.508,-62.988,0.000
1627808080.865,7.324,-10.254,-15.137,-23.438,0.000
1627808080.868,25.879,-16.113,-15.625,13.672,0.000
1627808080.872,-7.812,-21.484,-20.020,-10.742,0.000
1627808080.876,-44.922,-25.879,-16.113,-48.340,0.000
1627808080.880,-22.949,-17.090,-4.395,-14.648,0.000
1627808080.884,6.836,-15.137,-3.418,28.809,0.000
1627808080.888,-19.043,-28.320,-12.695,5.371,0.000
1627808080.892,-54.199,-27.832,-17.090,-41.992,0.000
1627808080.896,-41.016,-22.461,-12.207,-37.598,0.000
1627808080.900,-1.953,-23.438,-11.719,3.906,0.000
1627808080.904,-2.441,-21.973,-11.230,9.277,0.000
1627808080.907,-41.016,-24.414,-15.625,-40.527,0.000
1627808080.911,-45.898,-24.414,-18.555,-59.570,0.000
1627808080.915,-3.418,-20.996,-11.230,-11.719,0.000
1627808080.919,15.625,-18.066,-9.766,12.207,0.000
1627808080.923,-22.461,-21.484,-19.043,-34.180,0.000
1627808080.927,-45.898,-22.461,-21.973,-71.777,0.000
1627808080.931,-10.254,-16.113,-17.090,-30.762,0.000
1627808080.935,7.812,-17.090,-18.555,4.395,0.000
1627808080.939,-25.879,-26.367,-21.973,-25.391,0.000
1627808080.943,-47.852,-30.273,-25.391,-60.547,0.000
1627808080.947,-23.926,-24.902,-24.902,-41.504,0.000
1627808080.950,7.324,-15.137,-14.648,4.395,0.000
1627808080.954,-4.883,-14.648,-14.648,-2.930,0.000
1627808080.958,-43.945,-18.555,-23.926,-53.223,0.000
1627808080.962,-42.480,-17.090,-22.461,-55.176,0.000
1627808080.966,-4.395,-17.090,-14.648,-4.395,0.000
1627808080.970,0.000,-19.531,-14.160,6.348,0.000
1627808080.974,-37.109,-21.484,-21.484,-34.668,0.000
1627808080.978,-49.316,-21.973,-23.438,-57.129,0.000
1627808080.982,-13.184,-20.508,-16.602,-20.996,0.000
1627808080.986,7.324,-13.672,-12.207,6.836,0.000
1627808080.990,-19.531,-18.066,-17.578,-24.902,0.000
1627808080.993,-41.992,-26.367,-20.996,-59.082,0.000
1627808080.997,-15.625,-21.973,-20.020,-31.738,0.000
1627808081.001,9.766,-17.578,-17.578,9.277,0.000
1627808081.005,-16.113,-19.043,-21.484,-11.719,0.000
1627808081.009,-53.223,-23.926,-28.809,-60.547,0.000
1627808081.013,-33.203,-25.391,-26.855,-47.363,0.000
1627808081.017,4.395,-18.555,-22.461,0.000,0.000
1627808081.021,-5.371,-10.254,-20.996,-5.859,0.000
1627808081.025,-41.504,-9.277,-22.461,-47.852,0.000
1627808081.029,-41.992,-17.578,-21.973,-52.246,0.000
1627808081.032,-3.906,-23.926,-23.926,-10.254,0.000
1627808081.036,6.348,-17.578,-19.043,7.812,0.000
1627808081.040,-29.785,-18.066,-19.531,-34.668,0.000
1627808081.044,-52.734,-21.973,-21.484,-62.988,0.000
1627808081.048,-16.602,-17.578,-14.648,-22.461,0.000
1627808081.052,4.883,-21.973,-10.742,11.230,0.000
1627808081.056,-27.344,-30.273,-18.555,-20.020,0.000
1627808081.060,-48.828,-29.297,-21.973,-61.523,0.000
1627808081.064,-26.367,-27.344,-18.066,-32.715,0.000
1627808081.068,1.465,-22.949,-17.578,13.672,0.000
1627808081.072,-10.254,-23.438,-22.461,-4.395,0.000
1627808081.075,-41.016,-24.902,-26.367,-47.852,0.000
1627808081.079,-33.691,-19.531,-25.391,-45.410,0.000
1627808081.083,6.348,-14.160,-23.926,1.465,0.000
1627808081.087,1.465,-19.043,-25.879,4.395,0.000
1627808081.091,-41.504,-25.391,-28.809,-39.551,0.000
1627808081.095,-45.410,-21.973,-26.855,-52.734,0.000
1627808081.099,-13.184,-26.855,-24.414,-19.043,0.000
1627808081.103,-5.371,-28.320,-22.461,-3.906,0.000
1627808081.107,-38.086,-24.902,-22.461,-40.039,0.000
1627808081.111,-53.711,-22.949,-25.879,-62.012,0.000
1627808081.115,-18.555,-9.277,-19.531,-25.391,0.000
1627808081.118,3.418,-4.883,-15.625,6.836,0.000
1627808081.122,-23.438,-13.184,-20.508,-25.879,0.000
1627808081.126,-47.852,-19.531,-20.508,-68.359,0.000
1627808081.130,-23.926,-15.625,-19.531,-41.016,0.000
1627808081.134,8.301,-8.789,-20.508,3.906,0.000
1627808081.138,-8.301,-4.883,-18.555,-11.230,0.000
1627808081.142,-48.828,-10.254,-20.020,-52.246,0.000
1627808081.146,-43.945,-14.160,-21.973,-50.781,0.000
1627808081.150,-5.371,-14.648,-19.043,-7.324,0.000
1627808081.154,4.395,-10.742,-14.648,6.836,0.000
1627808081.158,-24.902,-7.324,-17.090,-31.738,0.000
1627808081.161,-37.109,-2.930,-14.160,-44.922,0.000
1627808081.165,-6.836,-10.742,-10.742,-6.836,0.000
1627808081.169,11.230,-19.531,-11.230,12.207,0.000
1627808081.173,-16.113,-14.648,-13.184,-16.113,0.000
1627808081.177,-35.156,-15.137,-17.090,-41.992,0.000
1627808081.181,-5.371,-6.836,-15.137,-11.719,0.000
1627808081.185,17.090,-1.465,-13.184,20.508,0.000
1627808081.189,-13.184,-11.230,-19.531,-10.742,0.000
1627808081.193,-52.734,-17.090,-27.832,-56.641,0.000
1627808081.197,-35.156,-11.719,-23.438,-40.039,0.000
1627808081.200,3.906,-9.277,-14.648,3.906,0.000
1627808081.204,-8.789,-11.230,-11.230,1.953,0.000
1627808081.208,-51.270,-16.602,-15.137,-39.551,0.000
1627808081.212,-45.898,-16.113,-17.090,-36.621,0.000
1627808081.216,-4.395,-6.348,-9.277,10.254,0.000
1627808081.220,0.488,-8.301,-11.719,16.113,0.000
1627808081.224,-39.551,-17.578,-18.555,-32.715,0.000
1627808081.228,-58.594,-20.508,-22.461,-58.594,0.000
1627808081.232,-19.043,-16.602,-17.578,-12.695,0.000
1627808081.236,0.488,-16.113,-12.695,18.555,0.000
1627808081.240,-31.738,-20.996,-18.066,-19.531,0.000
1627808081.243,-52.734,-25.391,-20.020,-55.176,0.000
1627808081.247,-27.344,-18.555,-7.812,-20.020,0.000
1627808081.251,1.465,-12.207,-4.395,15.137,0.000
1627808081.255,-16.602,-17.090,-12.695,-13.184,0.000
1627808081.259,-46.875,-23.926,-18.555,-58.105,0.000
1627808081.263,-30.273,-23.926,-20.508,-43.945,0.000
1627808081.267,0.977,-20.996,-18.066,2.930,0.000
1627808081.271,-4.395,-22.461,-13.672,0.000,0.000
1627808081.275,-37.109,-28.320,-14.648,-37.598,0.000
1627808081.279,-38.086,-23.926,-14.648,-44.434,0.000
1627808081.283,-4.395,-16.602,-13.184,-2.930,0.000
1627808081.286,-3.418,-24.414,-14.648,13.672,0.000
1627808081.290,-31.738,-25.391,-15.137,-23.926,0.000
1627808081.294,-43.945,-19.531,-15.625,-47.363,0.000
1627808081.298,-18.066,-20.020,-12.695,-9.277,0.000
1627808081.302,-1.953,-20.996,-13.184,17.090,0.000
1627808081.306,-30.273,-23.926,-17.090,-19.043,0.000
1627808081.310,-51.270,-20.020,-20.020,-52.246,0.000
1627808081.314,-18.066,-9.766,-14.648,-19.531,0.000
1627808081.318,10.742,-10.254,-13.184,17.578,0.000
1627808081.322,-17.090,-20.020,-19.043,-10.742,0.000
1627808081.325,-52.246,-21.973,-20.508,-53.711,0.000
1627808081.329,-39.062,-20.996,-20.020,-42.480,0.000
1627808081.333,1.465,-14.648,-17.090,4.395,0.000
1627808081.337,1.465,-11.719,-18.066,4.395,0.000
1627808081.341,-37.109,-11.230,-20.996,-44.434,0.000
1627808081.345,-43.457,-9.277,-24.414,-59.082,0.000
1627808081.349,-0.977,-6.836,-21.484,-14.160,0.000
1627808081.353,10.254,-9.766,-19.531,5.859,0.000
1627808081.357,-25.391,-18.066,-21.484,-28.809,0.000
1627808081.361,-46.875,-21.973,-20.508,-52.734,0.000
1627808081.365,-17.578,-20.020,-16.602,-23.926,0.000
1627808081.368,6.348,-20.020,-16.113,8.301,0.000
1627808081.372,-26.855,-17.090,-17.090,-17.090,0.000
1627808081.376,-60.059,-14.648,-20.020,-59.570,0.000
1627808081.380,-33.691,-11.719,-18.066,-36.621,0.000
1627808081.384,0.488,-12.207,-10.742,9.277,0.000
1627808081.388,-12.695,-15.625,-14.648,-5.859,0.000
1627808081.392,-44.922,-14.648,-21.973,-53.711,0.000
1627808081.396,-37.109,-10.254,-25.879,-49.805,0.000
1627808081.400,-4.395,-11.719,-28.320,-1.953,0.000
1627808081.404,-2.930,-12.207,-20.996,9.277,0.000
1627808081.408,-32.715,-14.160,-21.973,-32.227,0.000
1627808081.411,-42.480,-16.113,-25.879,-51.758,0.000
1627808081.415,-6.836,-10.254,-20.020,-10.742,0.000
1627808081.419,11.230,-10.254,-19.531,12.207,0.000
1627808081.423,-24.902,-15.137,-23.926,-30.762,0.000
1627808081.427,-46.387,-15.137,-26.367,-59.570,0.000
1627808081.431,-14.648,-12.207,-22.949,-20.996,0.000
1627808081.435,10.742,-8.301,-17.578,16.113,0.000
1627808081.439,-12.207,-15.625,-17.578,-4.395,0.000
1627808081.443,-41.016,-21.973,-19.043,-45.410,0.000
1627808081.447,-30.273,-21.973,-20.508,-38.086,0.000
1627808081.451,0.977,-19.043,-16.113,9.766,0.000
1627808081.454,-7.324,-17.578,-11.719,9.277,0.000
1627808081.458,-41.504,-22.949,-10.742,-40.039,0.000
1627808081.462,-37.598,-23.438,-10.254,-48.828,0.000
1627808081.466,1.953,-19.043,-4.395,-0.977,0.000
1627808081.470,7.812,-19.043,-3.418,13.184,0.000
1627808081.474,-34.180,-23.438,-11.230,-35.156,0.000
1627808081.478,-51.270,-27.344,-17.578,-57.617,0.000
1627808081.482,-11.230,-22.949,-17.090,-14.648,0.000
1627808081.486,5.371,-21.484,-17.578,4.883,0.000
1627808081.490,-31.738,-27.832,-21.973,-32.715,0.000
1627808081.493,-54.199,-27.344,-21.973,-65.430,0.000
1627808081.497,-29.785,-21.484,-22.949,-37.598,0.000
1627808081.501,-2.441,-22.461,-20.508,5.859,0.000
1627808081.505,-24.902,-32.227,-17.578,-11.719,0.000
1627808081.509,-53.223,-35.156,-20.996,-54.688,0.000
1627808081.513,-33.691,-26.367,-18.555,-40.527,0.000
1627808081.517,-1.953,-17.090,-14.160,5.371,0.000
1627808081.521,-9.277,-16.602,-16.113,0.977,0.000
1627808081.525,-45.898,-17.578,-25.879,-46.875,0.000
1627808081.529,-46.875,-20.508,-27.832,-55.176,0.000
1627808081.533,-2.930,-16.602,-21.484,-3.418,0.000
1627808081.536,13.184,-9.766,-13.184,19.043,0.000
1627808081.540,-18.066,-9.766,-12.207,-19.043,0.000
1627808081.544,-41.504,-19.043,-20.020,-52.734,0.000
1627808081.548,-12.207,-19.531,-20.508,-21.484,0.000
1627808081.552,15.137,-8.301,-13.672,10.742,0.000
1627808081.556,-20.508,-18.555,-20.508,-26.367,0.000
1627808081.560,-50.293,-23.926,-22.949,-55.176,0.000
1627808081.564,-18.555,-20.020,-19.531,-27.344,0.000
1627808081.568,13.184,-15.137,-19.531,13.184,0.000
1627808081.572,-15.137,-21.484,-18.066,-5.371,0.000
1627808081.576,-49.805,-33.691,-16.602,-50.293,0.000
1627808081.579,-26.855,-26.855,-13.184,-37.109,0.000
1627808081.583,8.789,-16.602,-11.719,7.812,0.000
1627808081.587,-9.766,-23.438,-13.184,5.859,0.000
1627808081.591,-52.246,-26.367,-16.602,-39.551,0.000
1627808081.595,-56.641,-24.902,-21.973,-56.152,0.000
1627808081.599,-14.160,-22.949,-13.184,-6.348,0.000
1627808081.603,-3.418,-22.461,-7.812,19.043,0.000
1627808081.607,-37.598,-19.043,-13.184,-22.461,0.000
1627808081.611,-52.246,-20.020,-15.137,-51.270,0.000
1627808081.615,-19.531,-18.555,-11.230,-14.160,0.000
1627808081.619,0.000,-18.066,-11.719,16.602,0.000
1627808081.622,-31.250,-25.879,-20.020,-18.066,0.000
1627808081.626,-53.223,-20.996,-17.578,-59.082,0.000
1627808081.630,-24.414,-11.719,-12.207,-34.180,0.000
1627808081.634,0.488,-18.555,-15.625,4.395,0.000
1627808081.638,-24.414,-25.879,-12.695,-9.277,0.000
1627808081.642,-57.129,-23.926,-13.672,-47.363,0.000
1627808081.646,-48.828,-23.926,-18.066,-46.875,0.000
1627808081.650,-14.648,-18.555,-11.719,-3.906,0.000
1627808081.654,-7.812,-13.672,-9.277,3.418,0.000
1627808081.658,-36.621,-14.160,-16.113,-41.504,0.000
1627808081.661,-43.457,-15.137,-21.973,-58.594,0.000
1627808081.665,-11.230,-15.137,-20.508,-18.066,0.000
1627808081.669,0.488,-11.230,-19.043,7.324,0.000
1627808081.673,-37.109,-16.602,-24.414,-32.715,0.000
1627808081.677,-56.152,-18.555,-26.367,-62.012,0.000
1627808081.681,-20.020,-13.184,-20.020,-23.926,0.000
1627808081.685,5.859,-13.184,-17.090,11.719,0.000
1627808081.689,-17.578,-20.508,-18.066,-13.184,0.000
1627808081.693,-48.340,-24.414,-21.484,-58.105,0.000
1627808081.697,-26.855,-22.461,-23.438,-50.293,0.000
1627808081.701,5.371,-15.137,-21.973,-6.348,0.000
1627808081.704,-12.695,-14.160,-21.973,-10.742,0.000
1627808081.708,-47.852,-19.043,-23.438,-52.734,0.000
1627808081.712,-47.852,-21.973,-25.879,-55.664,0.000
1627808081.716,-11.719,-19.531,-18.555,-5.371,0.000
1627808081.720,-6.348,-20.996,-15.137,6.348,0.000
1627808081.724,-37.598,-18.555,-18.066,-32.715,0.000
1627808081.728,-42.969,-16.113,-19.531,-46.875,0.000
1627808081.732,-12.695,-18.066,-18.555,-15.137,0.000
1627808081.736,-3.418,-20.996,-22.461,2.930,0.000
1627808081.740,-37.598,-24.414,-29.297,-31.738,0.000
1627808081.744,-55.664,-24.902,-26.855,-62.012,0.000
1627808081.747,-27.832,-22.949,-23.926,-35.645,0.000
1627808081.751,-6.348,-21.484,-21.484,-0.977,0.000
1627808081.755,-20.996,-20.508,-20.020,-19.531,0.000
1627808081.759,-56.152,-20.996,-24.414,-65.430,0.000
1627808081.763,-44.434,-16.113,-20.020,-52.734,0.000
1627808081.767,-1.953,-5.371,-13.672,0.488,0.000
1627808081.771,-7.812,-6.348,-20.020,-1.465,0.000
1627808081.775,-41.504,-17.090,-26.855,-47.363,0.000
1627808081.779,-38.574,-19.531,-22.949,-56.641,0.000
1627808081.783,1.465,-13.184,-16.602,-14.648,0.000
1627808081.786,22.461,-1.465,-13.184,9.766,0.000
1627808081.790,-8.789,-5.371,-20.996,-27.344,0.000
1627808081.794,-27.344,-13.184,-26.855,-59.082,0.000
1627808081.798,14.160,-1.465,-17.090,-14.160,0.000
1627808081.802,23.438,-4.395,-17.578,24.414,0.000
1627808081.806,-17.578,-14.160,-20.996,-4.395,0.000
1627808081.810,-42.480,-14.648,-20.996,-36.133,0.000
1627808081.814,-23.438,-11.230,-18.555,-7.812,0.000
1627808081.818,7.324,-8.301,-15.137,33.203,0.000
1627808081.822,-10.254,-11.230,-18.555,8.301,0.000
1627808081.826,-42.969,-12.695,-20.508,-43.945,0.000
1627808081.829,-32.227,-8.789,-21.484,-45.410,0.000
1627808081.833,-0.977,-9.766,-22.461,-3.906,0.000
1627808081.837,-9.766,-13.672,-24.414,-2.930,0.000
1627808081.841,-49.805,-15.625,-26.367,-53.711,0.000
1627808081.845,-54.199,-15.137,-21.484,-60.059,0.000
1627808081.849,-20.508,-16.113,-19.043,-15.625,0.000
1627808081.853,-12.207,-19.043,-20.020,-0.488,0.000
1627808081.857,-42.969,-23.438,-17.578,-38.574,0.000
1627808081.861,-62.500,-25.391,-23.438,-72.266,0.000
1627808081.865,-36.621,-14.160,-25.391,-43.945,0.000
1627808081.869,-8.789,-12.207,-26.855,-7.324,0.000
1627808081.872,-33.691,-22.461,-34.668,-37.109,0.000
1627808081.876,-62.012,-24.414,-29.785,-76.660,0.000
1627808081.880,-39.062,-22.461,-21.973,-54.199,0.000
1627808081.884,-7.324,-20.996,-22.461,-10.742,0.000
1627808081.888,-20.508,-22.949,-23.438,-19.043,0.000
1627808081.892,-53.711,-22.949,-29.785,-59.570,0.000
