timestamps,TP9,AF7,AF8,TP10,Right AUX
1627808619.722,-40.527,-19.043,-11.719,-55.176,0.000
1627808619.726,5.859,-16.113,-6.836,2.930,0.000
1627808619.730,-14.160,-20.020,-11.719,-2.930,0.000
1627808619.734,-73.242,-25.391,-17.578,-63.477,0.000
1627808619.738,-60.547,-22.461,-12.695,-71.777,0.000
1627808619.742,-4.883,-10.742,-7.812,-18.066,0.000
1627808619.745,-8.301,-14.160,-12.695,-5.371,0.000
1627808619.749,-60.547,-24.414,-12.207,-55.664,0.000
1627808619.753,-66.406,-18.066,-9.766,-78.613,0.000
1627808619.757,-16.602,-18.066,-9.766,-36.133,0.000
1627808619.761,-0.977,-15.625,-6.348,-2.930,0.000
1627808619.765,-42.480,-10.742,-9.277,-35.645,0.000
1627808619.769,-65.430,-18.555,-9.277,-75.684,0.000
1627808619.773,-30.762,-14.648,-7.324,-57.129,0.000
1627808619.777,-0.977,-17.578,-6.836,-14.160,0.000
1627808619.781,-29.785,-20.996,-5.371,-25.879,0.000
1627808619.785,-68.848,-20.020,-13.672,-79.590,0.000
1627808619.788,-41.016,-17.090,-16.113,-75.684,0.000
1627808619.792,2.930,-15.137,-13.184,-20.508,0.000
1627808619.796,-17.090,-22.949,-15.137,-15.625,0.000
1627808619.800,-63.477,-19.043,-15.625,-64.941,0.000
1627808619.804,-60.547,-18.555,-14.648,-80.566,0.000
1627808619.808,-11.230,-20.508,-13.672,-31.250,0.000
1627808619.812,-2.930,-18.066,-14.160,-7.324,0.000
1627808619.816,-50.781,-22.461,-18.066,-51.758,0.000
1627808619.820,-69.824,-26.367,-20.996,-88.379,0.000
1627808619.824,-23.926,-20.508,-15.625,-51.758,0.000
1627808619.828,-0.488,-15.625,-14.160,-6.348,0.000
1627808619.831,-38.574,-17.090,-15.625,-26.855,0.000
1627808619.835,-70.801,-18.555,-16.113,-71.289,0.000
1627808619.839,-39.062,-22.461,-15.137,-58.105,0.000
1627808619.843,-11.230,-23.926,-11.719,-11.230,0.000
1627808619.847,-41.504,-26.855,-13.672,-18.555,0.000
1627808619.851,-80.566,-29.297,-17.578,-71.777,0.000
1627808619.855,-62.012,-21.973,-16.113,-73.730,0.000
1627808619.859,-12.207,-18.555,-6.836,-20.020,0.000
1627808619.863,-12.695,-28.320,0.977,-1.465,0.000
1627808619.867,-63.965,-25.391,-7.324,-50.781,0.000
1627808619.870,-66.895,-22.461,-15.137,-77.148,0.000
1627808619.874,-9.766,-24.902,-11.230,-30.762,0.000
1627808619.878,3.906,-23.926,-11.230,1.465,0.000
1627808619.882,-42.969,-20.508,-13.184,-34.180,0.000
1627808619.886,-67.383,-26.855,-12.695,-71.289,0.000
1627808619.890,-26.367,-21.973,-10.254,-38.574,0.000
1627808619.894,0.000,-14.648,-9.277,3.906,0.000
1627808619.898,-41.992,-21.973,-14.160,-26.855,0.000
1627808619.902,-70.801,-28.320,-18.555,-74.219,0.000
1627808619.906,-37.109,-26.367,-19.043,-55.664,0.000
1627808619.910,4.395,-20.508,-17.578,0.488,0.000
1627808619.913,-18.555,-20.996,-17.090,-4.883,0.000
1627808619.917,-65.430,-18.066,-20.020,-58.594,0.000
1627808619.921,-47.363,-29.785,-17.090,-56.152,0.000
1627808619.925,2.930,-33.203,-12.207,-5.371,0.000
1627808619.929,-3.906,-22.461,-11.230,8.789,0.000
1627808619.933,-53.223,-27.344,-12.695,-39.551,0.000
1627808619.937,-59.570,-31.738,-11.230,-67.871,0.000
1627808619.941,-6.348,-26.855,-2.441,-21.484,0.000
1627808619.945,10.742,-22.461,-6.836,13.184,0.000
1627808619.949,-27.832,-17.090,-10.742,-20.996,0.000
1627808619.953,-50.293,-20.020,-11.719,-63.477,0.000
1627808619.956,-13.184,-24.902,-5.859,-37.109,0.000
1627808619.960,19.043,-20.508,-2.441,9.277,0.000
1627808619.964,-16.113,-23.926,-5.371,-9.766,0.000
1627808619.968,-44.922,-17.578,-8.789,-50.781,0.000
1627808619.972,-23.438,-15.137,-11.719,-44.434,0.000
1627808619.976,9.277,-11.230,-9.766,3.418,0.000
1627808619.980,-9.766,-19.043,-8.301,2.441,0.000
1627808619.984,-60.059,-16.602,-10.254,-51.758,0.000
1627808619.988,-50.293,-24.414,-12.207,-60.059,0.000
1627808619.992,-3.418,-29.297,-10.742,-8.789,0.000
1627808619.996,-2.930,-24.902,-7.324,10.254,0.000
1627808619.999,-51.270,-29.297,-9.766,-37.598,0.000
1627808620.003,-65.430,-23.926,-12.695,-69.824,0.000
1627808620.007,-12.207,-21.484,-5.371,-28.320,0.000
1627808620.011,13.184,-24.902,-2.441,12.695,0.000
1627808620.015,-36.133,-24.902,-13.184,-21.973,0.000
1627808620.019,-71.777,-29.297,-19.043,-69.824,0.000
1627808620.023,-34.668,-25.879,-12.207,-43.945,0.000
1627808620.027,-2.441,-22.949,-8.789,2.930,0.000
1627808620.031,-36.621,-31.250,-17.090,-18.066,0.000
1627808620.035,-76.172,-33.691,-16.602,-68.359,0.000
1627808620.039,-53.711,-24.902,-14.648,-61.035,0.000
1627808620.042,-5.859,-20.020,-6.836,-6.836,0.000
1627808620.046,-23.926,-17.578,-4.395,-7.812,0.000
1627808620.050,-65.430,-30.273,-14.160,-61.035,0.000
1627808620.054,-65.430,-39.551,-13.672,-78.613,0.000
1627808620.058,-15.137,-29.297,-7.812,-30.762,0.000
1627808620.062,-7.324,-19.043,-11.230,-7.812,0.000
1627808620.066,-57.129,-34.180,-19.531,-51.758,0.000
1627808620.070,-68.359,-34.668,-17.090,-75.195,0.000
1627808620.074,-15.137,-23.926,-10.742,-31.738,0.000
1627808620.078,7.324,-27.344,-12.207,2.930,0.000
1627808620.081,-44.434,-29.785,-17.578,-30.273,0.000
1627808620.085,-67.871,-32.715,-18.066,-71.777,0.000
1627808620.089,-27.344,-31.738,-17.090,-49.316,0.000
1627808620.093,10.742,-24.414,-12.207,0.488,0.000
1627808620.097,-15.137,-20.508,-13.184,-10.254,0.000
1627808620.101,-63.477,-25.879,-20.508,-65.430,0.000
1627808620.105,-42.969,-23.926,-16.602,-63.965,0.000
1627808620.109,6.348,-20.020,-11.230,-12.207,0.000
1627808620.113,-4.395,-20.508,-13.184,-3.418,0.000
1627808620.117,-55.664,-26.855,-17.578,-57.129,0.000
1627808620.121,-52.246,-30.273,-18.555,-79.590,0.000
1627808620.124,4.395,-19.531,-15.137,-30.273,0.000
1627808620.128,20.020,-23.926,-9.766,5.371,0.000
1627808620.132,-27.832,-30.762,-11.230,-32.715,0.000
1627808620.136,-50.781,-28.809,-16.602,-71.289,0.000
1627808620.140,-10.742,-30.273,-13.672,-35.156,0.000
1627808620.144,10.254,-23.926,-11.719,10.742,0.000
1627808620.148,-27.344,-23.438,-5.859,-6.836,0.000
1627808620.152,-67.383,-28.809,-4.395,-49.316,0.000
1627808620.156,-42.480,-20.996,-5.371,-36.621,0.000
1627808620.160,2.441,-22.461,-1.953,11.230,0.000
1627808620.164,-18.066,-30.762,-7.324,2.930,0.000
1627808620.167,-60.059,-31.250,-14.160,-45.898,0.000
1627808620.171,-43.457,-26.855,-11.230,-53.223,0.000
1627808620.175,5.371,-21.973,-6.836,-9.766,0.000
1627808620.179,0.000,-22.949,-11.719,3.418,0.000
1627808620.183,-53.223,-26.855,-16.113,-46.387,0.000
1627808620.187,-59.570,-25.391,-12.695,-65.918,0.000
1627808620.191,-10.254,-15.625,-11.230,-20.508,0.000
1627808620.195,3.906,4.883,-14.648,7.812,0.000
1627808620.199,-33.691,-16.113,-12.207,-23.438,0.000
1627808620.203,-54.688,-26.367,-8.789,-62.500,0.000
1627808620.206,-10.742,-11.719,-4.395,-33.203,0.000
1627808620.210,23.926,-7.812,-0.488,13.184,0.000
1627808620.214,-20.996,-16.113,-4.883,-8.789,0.000
1627808620.218,-61.523,-24.414,-10.254,-57.129,0.000
1627808620.222,-36.621,-20.996,-7.812,-49.316,0.000
1627808620.226,-0.488,-20.020,-5.859,1.465,0.000
1627808620.230,-20.508,-23.438,-8.301,3.906,0.000
1627808620.234,-67.871,-22.461,-9.766,-45.410,0.000
1627808620.238,-66.406,-21.484,-9.277,-61.523,0.000
1627808620.242,-19.531,-25.391,-4.883,-15.625,0.000
1627808620.246,-13.184,-22.949,-3.418,8.301,0.000
1627808620.249,-62.500,-20.508,-7.324,-32.715,0.000
1627808620.253,-81.055,-24.902,-3.906,-64.453,0.000
1627808620.257,-36.621,-18.555,0.488,-28.809,0.000
1627808620.261,-15.625,-15.137,-1.953,7.812,0.000
1627808620.265,-61.035,-18.066,-7.812,-23.926,0.000
1627808620.269,-86.426,-25.879,-10.254,-65.918,0.000
1627808620.273,-54.199,-16.602,-8.789,-43.945,0.000
1627808620.277,-17.090,-19.531,-6.836,3.906,0.000
1627808620.281,-36.133,-25.391,-8.789,-6.836,0.000
1627808620.285,-83.008,-22.949,-14.648,-61.523,0.000
1627808620.289,-67.383,-27.344,-9.766,-62.012,0.000
1627808620.292,-17.090,-23.438,-3.906,-10.254,0.000
1627808620.296,-26.367,-18.066,-3.906,-2.441,0.000
1627808620.300,-73.730,-20.508,-3.906,-51.758,0.000
1627808620.304,-68.848,-21.484,-5.859,-72.266,0.000
1627808620.308,-17.090,-19.531,-5.859,-24.902,0.000
1627808620.312,-5.859,-20.020,-2.930,2.930,0.000
1627808620.316,-52.246,-23.438,-6.836,-38.086,0.000
1627808620.320,-75.195,-27.832,-9.766,-73.730,0.000
1627808620.324,-31.738,-26.367,-11.719,-43.457,0.000
1627808620.328,-4.395,-19.043,-9.766,0.000,0.000
1627808620.331,-43.945,-18.555,-4.883,-26.855,0.000
1627808620.335,-78.125,-25.879,-12.207,-82.031,0.000
1627808620.339,-45.898,-18.555,-17.090,-63.965,0.000
1627808620.343,-10.254,-1.953,-18.066,-14.160,0.000
1627808620.347,-32.227,-21.484,-16.113,-19.531,0.000
1627808620.351,-66.406,-29.785,-15.137,-67.871,0.000
1627808620.355,-49.805,-21.484,-17.578,-75.195,0.000
1627808620.359,-3.906,-20.996,-17.090,-25.879,0.000
1627808620.363,-9.766,-22.949,-15.137,-13.672,0.000
1627808620.367,-56.641,-27.344,-14.160,-60.547,0.000
1627808620.371,-62.012,-21.484,-14.160,-80.078,0.000
1627808620.374,-14.160,-14.160,-13.672,-34.668,0.000
1627808620.378,4.395,-10.742,-10.742,1.465,0.000
1627808620.382,-39.551,-10.254,-11.719,-34.180,0.000
1627808620.386,-61.523,-13.184,-15.137,-75.195,0.000
1627808620.390,-12.695,-12.695,-10.254,-40.527,0.000
1627808620.394,20.996,-6.348,-5.859,10.742,0.000
1627808620.398,-16.113,-7.324,-6.348,-11.719,0.000
1627808620.402,-55.664,-10.742,-10.742,-62.988,0.000
1627808620.406,-30.273,-12.207,-11.719,-52.246,0.000
1627808620.410,6.836,-14.160,-8.789,-8.789,0.000
1627808620.414,-21.973,-11.230,-14.160,-22.949,0.000
1627808620.417,-63.477,-20.996,-16.113,-66.895,0.000
1627808620.421,-55.664,-14.648,-18.066,-66.406,0.000
1627808620.425,-7.324,-3.418,-16.113,-19.043,0.000
1627808620.429,-6.836,-12.207,-11.719,-5.371,0.000
1627808620.433,-56.641,-15.137,-13.184,-51.270,0.000
1627808620.437,-64.453,-18.066,-14.160,-77.148,0.000
1627808620.441,-21.973,-16.602,-12.207,-37.109,0.000
1627808620.445,-1.953,-12.207,-8.301,-0.488,0.000
1627808620.449,-53.711,-21.973,-13.672,-39.062,0.000
1627808620.453,-85.449,-26.855,-18.555,-82.031,0.000
1627808620.457,-41.016,-16.113,-13.672,-53.711,0.000
1627808620.460,-6.348,-9.277,-13.672,-7.812,0.000
1627808620.464,-33.691,-13.672,-17.578,-25.391,0.000
1627808620.468,-73.242,-18.555,-18.066,-80.078,0.000
1627808620.472,-48.340,-13.672,-18.555,-72.754,0.000
1627808620.476,0.000,-11.230,-12.695,-13.672,0.000
1627808620.480,-18.066,-21.973,-11.719,-9.766,0.000
1627808620.484,-68.848,-19.531,-12.207,-62.988,0.000
1627808620.488,-68.359,-14.648,-12.207,-82.031,0.000
1627808620.492,-15.625,-19.531,-8.301,-30.273,0.000
1627808620.496,-13.672,-16.602,-6.836,-4.395,0.000
1627808620.499,-69.336,-21.973,-11.230,-50.293,0.000
1627808620.503,-82.031,-20.020,-12.695,-84.961,0.000
1627808620.507,-37.109,-17.578,-14.648,-50.293,0.000
1627808620.511,-21.973,-20.508,-16.113,-13.184,0.000
1627808620.515,-58.594,-20.508,-13.672,-33.203,0.000
1627808620.519,-83.984,-24.414,-13.184,-71.289,0.000
1627808620.523,-53.223,-21.973,-10.742,-49.805,0.000
1627808620.527,-17.578,-22.461,-9.766,-2.441,0.000
1627808620.531,-51.270,-30.762,-18.066,-20.508,0.000
1627808620.535,-95.703,-32.715,-20.020,-73.730,0.000
1627808620.539,-71.777,-28.320,-16.113,-67.383,0.000
1627808620.542,-21.973,-31.738,-15.137,-13.672,0.000
1627808620.546,-27.344,-32.227,-10.254,0.000,0.000
1627808620.550,-74.707,-34.668,-15.137,-49.805,0.000
1627808620.554,-75.195,-29.297,-19.531,-73.242,0.000
1627808620.558,-28.320,-13.184,-15.137,-27.832,0.000
1627808620.562,-17.090,-23.438,-11.719,1.465,0.000
1627808620.566,-62.988,-35.156,-14.160,-39.062,0.000
1627808620.570,-87.891,-33.691,-15.625,-79.102,0.000
1627808620.574,-49.316,-36.133,-17.090,-53.711,0.000
1627808620.578,-19.531,-32.715,-16.602,-8.789,0.000
1627808620.582,-51.758,-29.785,-14.160,-23.926,0.000
1627808620.585,-82.520,-30.762,-11.230,-64.453,0.000
1627808620.589,-52.246,-35.156,-10.742,-51.758,0.000
1627808620.593,-12.695,-31.738,-6.836,-4.395,0.000
1627808620.597,-35.156,-29.297,-6.348,-8.789,0.000
1627808620.601,-81.543,-27.832,-12.695,-63.477,0.000
1627808620.605,-57.129,-24.414,-7.812,-61.523,0.000
1627808620.609,0.000,-15.137,0.977,-5.859,0.000
1627808620.613,-13.184,-14.160,-3.906,-2.441,0.000
1627808620.617,-64.941,-20.996,-14.160,-57.617,0.000
1627808620.621,-68.848,-23.926,-12.695,-81.543,0.000
1627808620.624,-19.531,-20.508,-1.953,-34.180,0.000
1627808620.628,-1.953,-19.043,-1.953,-0.977,0.000
1627808620.632,-46.875,-21.973,-6.836,-41.992,0.000
1627808620.636,-65.918,-18.555,-8.789,-76.660,0.000
1627808620.640,-21.484,-20.020,-6.348,-42.969,0.000
1627808620.644,4.883,-11.719,-1.953,3.418,0.000
1627808620.648,-30.762,-10.254,-2.930,-13.672,0.000
1627808620.652,-68.359,-25.391,-10.742,-63.965,0.000
1627808620.656,-41.992,-18.066,-13.672,-54.199,0.000
1627808620.660,0.977,-8.301,-13.672,-4.883,0.000
1627808620.664,-16.602,-12.695,-16.113,-8.789,0.000
1627808620.667,-54.199,-14.160,-17.578,-60.059,0.000
1627808620.671,-39.062,-9.277,-14.160,-63.965,0.000
1627808620.675,15.625,-5.371,-8.301,-9.766,0.000
1627808620.679,18.555,-2.441,-15.137,8.789,0.000
1627808620.683,-34.180,-11.719,-23.926,-34.180,0.000
1627808620.687,-48.828,-20.020,-17.578,-64.453,0.000
1627808620.691,-5.371,-14.160,-8.301,-27.344,0.000
1627808620.695,15.137,-5.859,-6.348,13.184,0.000
1627808620.699,-28.320,-19.531,-15.137,-23.438,0.000
1627808620.703,-58.105,-28.320,-17.578,-69.824,0.000
1627808620.707,-22.461,-17.090,-16.113,-43.457,0.000
1627808620.710,6.836,-15.137,-18.066,3.906,0.000
1627808620.714,-24.902,-7.812,-20.996,-14.160,0.000
1627808620.718,-64.453,-4.395,-28.809,-63.477,0.000
1627808620.722,-38.574,-18.555,-24.414,-49.316,0.000
1627808620.726,13.184,-10.254,-14.160,12.695,0.000
1627808620.730,6.348,-5.859,-13.184,23.926,0.000
1627808620.734,-45.898,-16.113,-20.508,-30.762,0.000
1627808620.738,-50.781,-20.996,-20.996,-54.688,0.000
1627808620.742,-3.906,-19.531,-13.184,-13.184,0.000
1627808620.746,-4.395,-22.949,-13.184,5.371,0.000
1627808620.750,-55.176,-27.832,-16.113,-37.598,0.000
1627808620.753,-70.312,-23.926,-14.160,-72.266,0.000
1627808620.757,-26.367,-20.020,-9.277,-36.133,0.000
1627808620.761,-4.395,-24.902,-11.230,-3.906,0.000
1627808620.765,-44.922,-28.809,-18.555,-35.645,0.000
1627808620.769,-79.102,-26.367,-18.555,-81.055,0.000
1627808620.773,-55.176,-17.578,-16.113,-64.941,0.000
1627808620.777,-12.207,-13.184,-11.719,-4.883,0.000
1627808620.781,-28.320,-14.648,-7.812,-9.277,0.000
1627808620.785,-72.266,-20.020,-15.625,-63.477,0.000
1627808620.789,-51.758,-27.832,-16.113,-60.059,0.000
1627808620.792,-5.859,-18.066,-11.230,-8.789,0.000
1627808620.796,-16.113,-16.602,-15.625,-0.488,0.000
1627808620.800,-52.246,-13.672,-17.578,-45.410,0.000
1627808620.804,-50.781,-16.602,-14.648,-60.547,0.000
1627808620.808,-12.695,-20.996,-14.160,-25.391,0.000
1627808620.812,-5.371,-18.555,-14.160,0.000,0.000
1627808620.816,-42.480,-20.996,-20.020,-36.133,0.000
1627808620.820,-54.199,-19.531,-17.578,-71.289,0.000
1627808620.824,-18.066,-14.648,-15.137,-40.527,0.000
1627808620.828,11.719,-14.160,-16.113,0.000,0.000
1627808620.832,-15.137,-19.043,-13.672,-20.020,0.000
1627808620.835,-48.340,-19.043,-13.672,-64.453,0.000
1627808620.839,-19.531,-17.090,-14.160,-45.410,0.000
1627808620.843,27.344,-14.648,-12.695,11.230,0.000
1627808620.847,14.160,-11.719,-8.789,15.625,0.000
1627808620.851,-35.156,-13.672,-11.719,-35.156,0.000
1627808620.855,-28.320,-12.695,-16.602,-47.363,0.000
1627808620.859,22.949,-9.766,-7.324,4.395,0.000
1627808620.863,10.742,-1.953,-5.371,11.230,0.000
1627808620.867,-36.133,-16.113,-12.207,-39.551,0.000
1627808620.871,-40.039,-22.949,-15.625,-67.871,0.000
1627808620.875,-1.465,-20.020,-12.695,-32.227,0.000
1627808620.878,11.230,-21.973,-10.254,0.977,0.000
1627808620.882,-41.504,-30.762,-16.113,-43.457,0.000
1627808620.886,-65.430,-34.180,-16.602,-79.102,0.000
1627808620.890,-13.184,-21.973,-12.695,-40.039,0.000
1627808620.894,19.531,-21.484,-12.207,0.488,0.000
1627808620.898,-24.902,-33.691,-17.578,-24.414,0.000
1627808620.902,-61.523,-32.227,-21.973,-73.242,0.000
1627808620.906,-26.367,-18.555,-16.113,-61.035,0.000
1627808620.910,14.160,-15.625,-12.207,-13.184,0.000
1627808620.914,-8.301,-18.555,-13.184,-14.160,0.000
1627808620.917,-54.688,-19.043,-15.137,-63.477,0.000
1627808620.921,-48.340,-20.508,-15.625,-74.219,0.000
1627808620.925,4.883,-27.832,-9.766,-19.043,0.000
1627808620.929,9.766,-16.113,-4.395,3.906,0.000
1627808620.933,-41.016,-22.461,-10.254,-44.434,0.000
1627808620.937,-55.664,-32.715,-12.695,-71.777,0.000
1627808620.941,-8.789,-20.508,-5.371,-27.344,0.000
1627808620.945,8.301,-20.020,-7.812,8.301,0.000
1627808620.949,-39.062,-27.344,-14.648,-25.391,0.000
1627808620.953,-69.336,-27.832,-17.090,-69.824,0.000
1627808620.957,-32.715,-28.320,-16.602,-51.758,0.000
1627808620.960,4.395,-21.973,-15.137,-2.441,0.000
1627808620.964,-30.273,-25.879,-18.066,-18.066,0.000
1627808620.968,-76.660,-33.691,-22.461,-70.312,0.000
1627808620.972,-47.363,-22.949,-18.066,-56.641,0.000
1627808620.976,-6.348,-20.508,-17.578,-10.254,0.000
1627808620.980,-20.996,-22.949,-15.625,-9.277,0.000
1627808620.984,-64.941,-26.367,-11.230,-53.711,0.000
1627808620.988,-65.918,-20.996,-16.602,-66.895,0.000
1627808620.992,-17.090,-13.184,-17.090,-20.508,0.000
1627808620.996,-14.648,-24.902,-17.578,0.977,0.000
1627808621.000,-60.059,-19.531,-21.484,-35.645,0.000
1627808621.003,-71.289,-19.531,-19.531,-65.918,0.000
1627808621.007,-21.484,-18.555,-10.742,-28.320,0.000
1627808621.011,10.254,-13.672,-6.348,14.160,0.000
1627808621.015,-33.203,-21.484,-10.254,-20.020,0.000
1627808621.019,-71.289,-20.996,-11.230,-67.383,0.000
1627808621.023,-35.645,-16.113,-3.418,-43.457,0.000
1627808621.027,2.930,-12.695,-5.371,4.883,0.000
1627808621.031,-25.879,-13.184,-15.625,-7.324,0.000
1627808621.035,-67.383,-22.949,-17.578,-55.664,0.000
1627808621.039,-45.898,-25.879,-10.742,-59.570,0.000
1627808621.042,-0.977,-21.973,-8.301,-13.184,0.000
1627808621.046,-11.719,-21.973,-13.672,0.488,0.000
1627808621.050,-54.199,-18.066,-17.578,-43.457,0.000
1627808621.054,-58.105,-7.324,-15.625,-66.406,0.000
1627808621.058,-10.254,-21.973,-12.207,-21.484,0.000
1627808621.062,2.930,-24.902,-17.090,7.812,0.000
1627808621.066,-40.039,-11.719,-20.508,-30.273,0.000
1627808621.070,-66.406,-16.602,-20.996,-68.848,0.000
1627808621.074,-33.203,-21.973,-20.996,-40.527,0.000
1627808621.078,-5.371,-17.090,-17.578,0.488,0.000
1627808621.082,-37.598,-18.555,-18.066,-16.113,0.000
1627808621.085,-67.383,-21.973,-21.484,-62.012,0.000
1627808621.089,-39.062,-15.137,-20.508,-51.270,0.000
1627808621.093,2.930,-9.766,-15.137,3.418,0.000
1627808621.097,-16.113,-12.695,-17.578,3.906,0.000
1627808621.101,-59.082,-15.625,-22.461,-49.316,0.000
1627808621.105,-49.316,-17.090,-19.531,-64.453,0.000
1627808621.109,-9.766,-20.508,-15.137,-22.949,0.000
1627808621.113,-7.324,-20.508,-13.672,-5.371,0.000
1627808621.117,-53.223,-20.020,-17.578,-47.852,0.000
1627808621.121,-70.801,-20.996,-23.438,-85.938,0.000
1627808621.125,-26.855,-20.020,-22.461,-49.805,0.000
1627808621.128,-11.719,-12.207,-21.973,-20.020,0.000
1627808621.132,-53.711,-24.902,-23.438,-55.176,0.000
1627808621.136,-78.613,-26.367,-24.414,-93.750,0.000
1627808621.140,-43.457,-19.531,-25.879,-68.359,0.000
1627808621.144,-5.859,-20.996,-16.602,-16.113,0.000
1627808621.148,-30.762,-18.555,-11.230,-27.832,0.000
1627808621.152,-71.289,-24.902,-18.555,-74.707,0.000
1627808621.156,-49.805,-20.020,-18.555,-61.523,0.000
1627808621.160,-2.930,-21.973,-3.906,-6.348,0.000
1627808621.164,-22.461,-26.855,-3.906,-5.371,0.000
1627808621.168,-72.754,-27.344,-12.695,-53.711,0.000
1627808621.171,-63.477,-25.391,-12.695,-65.918,0.000
1627808621.175,-11.230,-19.531,-10.254,-14.648,0.000
1627808621.179,-6.348,-19.531,-3.906,14.160,0.000
1627808621.183,-59.570,-24.414,-6.836,-31.250,0.000
1627808621.187,-83.496,-14.160,-17.090,-69.824,0.000
1627808621.191,-30.762,-19.531,-13.184,-26.367,0.000
1627808621.195,1.465,-18.555,-10.254,18.555,0.000
1627808621.199,-37.109,-19.043,-19.531,-13.672,0.000
1627808621.203,-65.430,-19.043,-21.484,-54.199,0.000
1627808621.207,-20.020,-7.812,-13.184,-24.902,0.000
1627808621.210,21.973,-10.742,-13.184,20.020,0.000
1627808621.214,-14.648,-15.625,-16.602,1.465,0.000
1627808621.218,-58.105,-10.254,-15.137,-47.363,0.000
1627808621.222,-28.809,-14.160,-11.719,-41.504,0.000
1627808621.226,20.996,-12.207,-8.301,6.836,0.000
1627808621.230,-0.977,-18.555,-14.648,4.395,0.000
1627808621.234,-57.129,-25.879,-18.555,-48.828,0.000
1627808621.238,-55.176,-20.020,-18.066,-63.965,0.000
1627808621.242,-3.418,-10.254,-14.648,-16.113,0.000
1627808621.246,2.930,-7.324,-11.230,13.184,0.000
1627808621.250,-50.293,-17.578,-13.184,-28.320,0.000
1627808621.253,-78.613,-20.508,-12.207,-63.477,0.000
1627808621.257,-38.574,-14.160,-8.301,-30.273,0.000
1627808621.261,-12.207,-16.602,-10.742,5.371,0.000
1627808621.265,-59.082,-17.090,-17.578,-25.879,0.000
1627808621.269,-87.402,-20.508,-15.625,-71.289,0.000
1627808621.273,-48.340,-20.020,-11.719,-52.734,0.000
1627808621.277,-11.719,-18.555,-12.207,-9.277,0.000
1627808621.281,-34.180,-17.578,-13.184,-14.160,0.000
1627808621.285,-77.637,-20.508,-16.602,-63.477,0.000
1627808621.289,-62.012,-19.531,-15.137,-65.430,0.000
1627808621.293,-13.672,-19.531,-12.207,-14.160,0.000
1627808621.296,-22.949,-26.855,-13.184,-8.301,0.000
1627808621.300,-67.871,-20.020,-13.184,-50.781,0.000
1627808621.304,-69.824,-20.508,-11.230,-67.383,0.000
1627808621.308,-32.227,-24.414,-6.836,-30.273,0.000
1627808621.312,-19.531,-20.020,-8.789,-1.465,0.000
1627808621.316,-56.641,-20.508,-11.230,-36.621,0.000
1627808621.320,-81.543,-12.207,-10.742,-73.730,0.000
1627808621.324,-41.016,-5.859,-13.184,-46.875,0.000
1627808621.328,-1.953,-19.043,-6.836,-3.418,0.000
1627808621.332,-33.203,-16.602,-5.859,-17.578,0.000
1627808621.336,-69.336,-11.719,-7.324,-63.477,0.000
1627808621.339,-41.504,-13.672,-7.324,-53.223,0.000
1627808621.343,0.977,-11.230,-7.324,1.953,0.000
1627808621.347,-17.578,-13.184,-6.348,2.930,0.000
1627808621.351,-65.918,-18.555,-9.766,-47.852,0.000
1627808621.355,-60.059,-19.531,-9.277,-58.594,0.000
1627808621.359,-16.602,-15.625,-2.930,-8.789,0.000
1627808621.363,-15.625,-11.230,-0.977,15.137,0.000
1627808621.367,-64.453,-18.066,-8.789,-32.715,0.000
1627808621.371,-80.566,-19.531,-10.742,-65.918,0.000
1627808621.375,-38.086,-9.766,-12.207,-31.250,0.000
1627808621.378,-10.742,-14.648,-7.812,5.371,0.000
1627808621.382,-46.875,-17.090,-10.742,-18.066,0.000
1627808621.386,-76.172,-16.113,-18.066,-54.688,0.000
1627808621.390,-38.086,-20.996,-12.695,-33.203,0.000
1627808621.394,-7.324,-19.531,-8.301,10.742,0.000
1627808621.398,-39.551,-3.418,-7.812,0.488,0.000
1627808621.402,-76.660,-13.672,-10.742,-45.410,0.000
1627808621.406,-56.641,-27.832,-10.742,-45.898,0.000
1627808621.410,-10.742,-20.020,-6.348,0.000,0.000
1627808621.414,-22.949,-20.020,-7.812,0.977,0.000
1627808621.418,-65.430,-24.414,-10.742,-51.758,0.000
1627808621.421,-59.082,-25.391,-10.742,-67.871,0.000
1627808621.425,-11.230,-21.484,-11.719,-20.020,0.000
1627808621.429,-4.883,-15.625,-6.348,6.836,0.000
1627808621.433,-53.223,-24.902,-5.371,-40.039,0.000
1627808621.437,-63.965,-28.809,-7.324,-74.219,0.000
1627808621.441,-16.113,-19.531,-5.371,-32.227,0.000
1627808621.445,4.883,-18.066,-8.301,5.859,0.000
1627808621.449,-28.809,-23.438,-10.742,-20.020,0.000
1627808621.453,-61.523,-24.414,-13.184,-65.918,0.000
1627808621.457,-31.738,-14.160,-14.160,-52.246,0.000
1627808621.461,13.672,-12.695,-6.836,-0.977,0.000
1627808621.464,-21.484,-25.391,-7.324,-15.625,0.000
1627808621.468,-68.848,-22.949,-13.184,-66.406,0.000
1627808621.472,-41.992,-17.578,-9.277,-58.105,0.000
1627808621.476,10.742,-7.324,-3.906,-1.953,0.000
1627808621.480,4.883,-6.348,-8.301,6.348,0.000
1627808621.484,-47.363,-14.160,-14.648,-49.316,0.000
1627808621.488,-59.570,-18.555,-20.020,-75.195,0.000
1627808621.492,-15.137,-20.508,-20.020,-34.668,0.000
1627808621.496,-2.441,-22.461,-19.043,-14.160,0.000
1627808621.500,-49.316,-27.832,-23.438,-54.688,0.000
1627808621.503,-74.707,-29.297,-25.879,-89.355,0.000
1627808621.507,-26.367,-21.484,-21.484,-49.316,0.000
1627808621.511,6.348,-15.625,-18.555,-7.324,0.000
1627808621.515,-30.762,-24.414,-21.973,-31.738,0.000
1627808621.519,-61.523,-23.926,-20.996,-70.801,0.000
1627808621.523,-29.785,-6.836,-20.020,-56.152,0.000
1627808621.527,6.836,-16.602,-21.973,-15.625,0.000
1627808621.531,-20.508,-26.367,-21.484,-24.902,0.000
1627808621.535,-64.941,-17.090,-23.926,-71.289,0.000
1627808621.539,-52.246,-16.113,-22.949,-73.730,0.000
1627808621.543,-9.766,-13.184,-20.996,-34.180,0.000
1627808621.546,-19.043,-15.625,-23.926,-24.414,0.000
1627808621.550,-63.965,-27.832,-25.879,-63.477,0.000
1627808621.554,-63.965,-24.902,-24.414,-84.961,0.000
1627808621.558,-15.137,-16.602,-12.695,-41.992,0.000
1627808621.562,-4.395,-17.578,-11.719,-10.742,0.000
1627808621.566,-52.734,-24.902,-20.996,-50.781,0.000
1627808621.570,-69.824,-19.043,-16.602,-86.914,0.000
1627808621.574,-26.367,-14.160,-10.254,-55.176,0.000
1627808621.578,1.465,-16.602,-8.789,-14.160,0.000
1627808621.582,-34.180,-21.484,-14.160,-31.738,0.000
1627808621.586,-77.637,-30.273,-18.555,-78.125,0.000
1627808621.589,-56.152,-25.391,-13.672,-68.848,0.000
1627808621.593,-1.953,-19.043,-10.742,-13.672,0.000
1627808621.597,-13.184,-20.508,-14.648,-9.766,0.000
1627808621.601,-61.035,-21.973,-19.043,-61.035,0.000
1627808621.605,-52.246,-22.949,-20.020,-76.172,0.000
1627808621.609,-6.348,-14.648,-14.648,-28.809,0.000
1627808621.613,-10.742,-1.953,-13.672,-10.742,0.000
1627808621.617,-56.641,-7.812,-19.531,-55.176,0.000
1627808621.621,-68.848,-24.414,-19.531,-86.426,0.000
1627808621.625,-30.273,-23.438,-14.160,-50.781,0.000
1627808621.629,-7.812,-15.137,-15.625,-10.742,0.000
1627808621.632,-42.969,-16.602,-19.531,-36.133,0.000
1627808621.636,-71.289,-20.996,-17.578,-79.590,0.000
1627808621.640,-40.039,-21.973,-15.625,-61.035,0.000
1627808621.644,1.953,-17.578,-9.766,-10.254,0.000
1627808621.648,-24.414,-20.508,-10.254,-21.484,0.000
1627808621.652,-70.801,-23.926,-15.625,-75.195,0.000
1627808621.656,-46.387,-16.602,-9.277,-65.918,0.000
1627808621.660,0.977,-17.578,-3.418,-14.648,0.000
1627808621.664,-14.648,-20.508,-6.348,-9.766,0.000
1627808621.668,-57.617,-21.484,-13.672,-51.758,0.000
1627808621.671,-57.617,-22.949,-14.648,-68.848,0.000
1627808621.675,-17.578,-15.625,-13.184,-26.367,0.000
1627808621.679,-4.395,-14.648,-14.160,0.977,0.000
1627808621.683,-47.363,-17.578,-15.625,-41.016,0.000
1627808621.687,-65.918,-20.996,-11.719,-76.660,0.000
1627808621.691,-21.973,-22.461,-10.742,-41.504,0.000
1627808621.695,-2.930,-16.113,-13.184,-4.883,0.000
1627808621.699,-40.527,-10.254,-18.066,-33.203,0.000
1627808621.703,-69.824,-20.996,-20.020,-70.312,0.000
1627808621.707,-41.016,-26.855,-13.184,-51.758,0.000
1627808621.711,-2.441,-23.926,-7.324,-7.324,0.000
1627808621.714,-28.320,-28.809,-10.254,-18.555,0.000
1627808621.718,-79.590,-36.133,-18.555,-73.242,0.000
1627808621.722,-62.012,-27.832,-18.066,-75.684,0.000
1627808621.726,-10.254,-10.742,-9.766,-15.625,0.000
1627808621.730,-21.973,-15.137,-17.578,-2.930,0.000
1627808621.734,-68.359,-20.996,-22.949,-52.246,0.000
1627808621.738,-78.613,-20.020,-21.484,-76.660,0.000
1627808621.742,-29.785,-11.719,-18.555,-36.621,0.000
1627808621.746,-8.789,-20.020,-14.648,-2.441,0.000
1627808621.750,-50.293,-24.414,-18.066,-36.133,0.000
1627808621.754,-74.219,-9.277,-17.578,-79.590,0.000
1627808621.757,-29.785,-5.371,-11.230,-46.875,0.000
1627808621.761,2.441,-11.230,-15.625,-5.859,0.000
1627808621.765,-37.109,-11.230,-19.043,-32.715,0.000
1627808621.769,-68.359,-8.301,-18.066,-79.102,0.000
1627808621.773,-45.410,-15.625,-17.090,-67.871,0.000
1627808621.777,-5.371,-14.648,-12.695,-13.672,0.000
1627808621.781,-19.531,-7.812,-13.672,-14.160,0.000
1627808621.785,-68.848,-15.137,-16.113,-66.406,0.000
1627808621.789,-62.012,-19.043,-20.508,-73.730,0.000
1627808621.793,-17.578,-17.090,-23.438,-31.250,0.000
1627808621.796,-19.043,-18.066,-18.066,-16.113,0.000
1627808621.800,-67.871,-19.043,-14.648,-54.688,0.000
1627808621.804,-76.660,-21.484,-19.043,-82.520,0.000
1627808621.808,-31.738,-20.020,-17.090,-46.387,0.000
1627808621.812,-13.184,-5.371,-15.137,-8.301,0.000
1627808621.816,-44.922,-19.043,-17.090,-36.133,0.000
1627808621.820,-68.848,-30.762,-19.531,-77.637,0.000
1627808621.824,-25.391,-21.484,-16.602,-46.875,0.000
1627808621.828,10.742,-16.113,-10.254,4.395,0.000
1627808621.832,-23.438,-19.043,-8.789,-15.625,0.000
1627808621.836,-62.012,-22.461,-10.742,-64.941,0.000
1627808621.839,-40.527,-18.066,-14.160,-51.758,0.000
1627808621.843,7.324,-5.371,-11.230,0.977,0.000
1627808621.847,-4.395,-1.465,-10.254,-1.465,0.000
1627808621.851,-57.129,-10.742,-13.672,-51.270,0.000
1627808621.855,-56.152,-11.719,-12.695,-58.105,0.000
1627808621.859,-6.348,-8.301,-10.254,-13.184,0.000
1627808621.863,-0.488,-9.277,-10.742,5.859,0.000
1627808621.867,-48.828,-18.066,-12.207,-34.180,0.000
1627808621.871,-66.895,-18.555,-12.695,-68.359,0.000
1627808621.875,-23.438,-12.207,-4.395,-30.762,0.000
1627808621.879,-2.441,-20.996,-1.465,10.742,0.000
1627808621.882,-45.410,-18.066,-7.812,-19.531,0.000
1627808621.886,-73.730,-25.391,-8.789,-57.129,0.000
1627808621.890,-31.250,-29.297,-3.418,-28.320,0.000
1627808621.894,0.488,-19.531,-6.348,12.695,0.000
1627808621.898,-36.621,-25.879,-11.719,-3.906,0.000
1627808621.902,-72.754,-21.973,-11.230,-49.805,0.000
1627808621.906,-56.641,-25.391,-12.695,-51.270,0.000
1627808621.910,-18.555,-27.344,-13.672,-6.836,0.000
1627808621.914,-21.973,-20.996,-15.137,-1.465,0.000
1627808621.918,-64.941,-20.508,-14.160,-47.363,0.000
1627808621.922,-64.941,-17.578,-12.695,-64.453,0.000
1627808621.925,-14.160,-16.113,-14.648,-20.020,0.000
1627808621.929,-4.883,-16.602,-15.137,5.371,0.000
1627808621.933,-46.875,-20.996,-18.555,-31.738,0.000
1627808621.937,-59.082,-21.484,-18.066,-62.500,0.000
1627808621.941,-17.090,-20.996,-17.090,-30.273,0.000
1627808621.945,7.324,-18.066,-18.066,10.254,0.000
1627808621.949,-26.855,-21.973,-16.113,-12.207,0.000
1627808621.953,-60.059,-23.926,-17.578,-59.570,0.000
1627808621.957,-32.227,-21.973,-18.555,-47.852,0.000
1627808621.961,9.766,-20.020,-13.672,7.812,0.000
1627808621.964,-12.207,-15.137,-16.113,7.324,0.000
1627808621.968,-57.129,-26.367,-22.461,-44.922,0.000
1627808621.972,-40.527,-25.391,-20.020,-50.293,0.000
1627808621.976,12.207,-9.766,-16.113,7.324,0.000
1627808621.980,14.648,-9.766,-16.113,27.344,0.000
1627808621.984,-32.227,-19.531,-24.414,-22.949,0.000
1627808621.988,-33.691,-15.625,-20.020,-42.969,0.000
1627808621.992,21.973,-13.184,-11.230,0.488,0.000
1627808621.996,32.715,-18.555,-19.531,24.902,0.000
1627808622.000,-9.766,-20.508,-23.438,-2.441,0.000
1627808622.004,-31.738,-17.578,-20.508,-30.273,0.000
1627808622.007,4.395,-15.137,-16.113,-4.883,0.000
1627808622.011,37.109,-15.625,-14.648,34.180,0.000
1627808622.015,3.906,-13.672,-12.695,14.648,0.000
1627808622.019,-31.738,-16.602,-13.672,-33.203,0.000
1627808622.023,-6.348,-10.742,-11.719,-20.508,0.000
1627808622.027,30.762,1.465,-8.301,27.832,0.000
1627808622.031,19.531,-11.230,-7.812,31.250,0.000
1627808622.035,-20.020,-15.625,-9.277,-15.625,0.000
1627808622.039,-9.277,-6.836,-8.789,-24.414,0.000
1627808622.043,34.668,-6.836,-4.395,21.484,0.000
1627808622.047,27.832,-14.648,-5.859,36.621,0.000
1627808622.050,-18.555,-12.695,-12.695,-7.812,0.000
1627808622.054,-34.668,-12.207,-15.625,-39.551,0.000
1627808622.058,6.836,-11.230,-9.277,-4.883,0.000
1627808622.062,25.879,-7.812,-4.883,26.367,0.000
1627808622.066,-26.855,-11.230,-8.301,-11.719,0.000
1627808622.070,-59.570,-14.160,-12.207,-55.176,0.000
1627808622.074,-18.555,-8.789,-9.277,-30.762,0.000
1627808622.078,15.137,1.465,-2.441,16.602,0.000
1627808622.082,-24.902,-6.348,-10.254,-4.883,0.000
1627808622.086,-64.941,-10.742,-20.996,-60.059,0.000
1627808622.089,-42.969,-13.672,-20.508,-58.105,0.000
1627808622.093,-8.789,-11.719,-18.555,-15.137,0.000
1627808622.097,-20.508,-17.090,-14.160,-12.207,0.000
1627808622.101,-61.035,-23.926,-16.602,-61.035,0.000
1627808622.105,-59.570,-22.461,-20.020,-76.172,0.000
1627808622.109,-10.254,-18.555,-14.160,-26.367,0.000
1627808622.113,-4.883,-15.625,-11.719,-2.930,0.000
1627808622.117,-57.129,-25.879,-15.137,-44.922,0.000
1627808622.121,-76.172,-24.414,-13.184,-74.707,0.000
1627808622.125,-30.273,-19.531,-7.324,-40.527,0.000
1627808622.129,-6.836,-25.879,-8.301,-6.348,0.000
1627808622.132,-52.246,-27.832,-15.625,-31.250,0.000
1627808622.136,-88.379,-35.156,-22.461,-75.684,0.000
1627808622.140,-53.223,-31.250,-19.531,-58.105,0.000
1627808622.144,-10.742,-18.066,-15.137,-8.301,0.000
1627808622.148,-38.574,-22.461,-18.555,-20.508,0.000
1627808622.152,-77.637,-25.879,-18.555,-68.848,0.000
1627808622.156,-54.688,-18.555,-11.230,-66.406,0.000
1627808622.160,-13.672,-10.254,-11.230,-19.043,0.000
1627808622.164,-26.855,-13.672,-12.207,-14.648,0.000
1627808622.168,-72.754,-24.414,-12.207,-61.523,0.000
1627808622.172,-73.730,-27.344,-13.672,-77.148,0.000
1627808622.175,-25.391,-24.414,-10.254,-34.180,0.000
1627808622.179,-23.438,-16.113,-11.719,-16.113,0.000
1627808622.183,-68.359,-24.902,-13.184,-54.688,0.000
1627808622.187,-78.125,-20.996,-8.301,-83.984,0.000
1627808622.191,-35.645,-14.648,-3.418,-55.664,0.000
1627808622.195,-15.137,-20.020,-6.836,-19.531,0.000
1627808622.199,-49.316,-17.578,-10.254,-38.574,0.000
1627808622.203,-82.520,-12.695,-13.184,-81.055,0.000
1627808622.207,-55.176,-15.625,-13.672,-67.383,0.000
1627808622.211,-5.859,-11.719,-12.695,-14.648,0.000
1627808622.214,-24.414,-11.230,-16.113,-20.508,0.000
1627808622.218,-76.172,-22.949,-22.461,-79.102,0.000
1627808622.222,-62.988,-22.461,-19.531,-87.891,0.000
1627808622.226,-12.695,-12.207,-11.719,-37.109,0.000
1627808622.230,-18.555,-7.812,-14.160,-20.508,0.000
1627808622.234,-64.453,-21.973,-13.184,-62.500,0.000
1627808622.238,-73.242,-18.555,-11.230,-90.332,0.000
1627808622.242,-25.391,-6.348,-13.184,-51.758,0.000
1627808622.246,-7.324,-12.695,-11.230,-14.160,0.000
1627808622.250,-61.035,-22.461,-19.043,-55.176,0.000
1627808622.254,-93.750,-28.320,-24.902,-101.562,0.000
1627808622.257,-54.688,-17.578,-23.926,-71.777,0.000
1627808622.261,-20.020,-7.812,-23.438,-27.832,0.000
1627808622.265,-46.875,-14.160,-21.484,-45.410,0.000
1627808622.269,-81.543,-22.461,-25.879,-96.680,0.000
1627808622.273,-54.688,-19.531,-26.367,-90.332,0.000
1627808622.277,-12.695,-14.160,-25.879,-38.574,0.000
1627808622.281,-31.738,-13.672,-27.832,-34.180,0.000
1627808622.285,-80.078,-17.578,-25.879,-79.590,0.000
1627808622.289,-75.195,-19.531,-23.926,-91.797,0.000
1627808622.293,-22.949,-15.625,-19.531,-42.480,0.000
1627808622.297,-13.184,-6.836,-15.137,-14.648,0.000
1627808622.300,-55.176,2.930,-20.020,-54.199,0.000
1627808622.304,-67.383,-15.137,-23.926,-85.938,0.000
1627808622.308,-25.391,-20.508,-21.484,-53.223,0.000
1627808622.312,2.441,-5.859,-19.043,-10.742,0.000
1627808622.316,-40.527,-11.719,-21.484,-35.156,0.000
1627808622.320,-74.707,-11.230,-24.902,-79.102,0.000
1627808622.324,-39.062,-14.160,-18.555,-55.176,0.000
1627808622.328,-3.906,-19.043,-14.160,-9.277,0.000
1627808622.332,-33.691,-17.578,-16.113,-20.508,0.000
1627808622.336,-78.125,-21.973,-17.578,-66.406,0.000
1627808622.340,-59.082,-23.926,-18.066,-65.918,0.000
1627808622.343,-16.602,-15.625,-14.648,-11.719,0.000
1627808622.347,-23.438,-10.742,-16.113,-0.488,0.000
1627808622.351,-66.406,-22.461,-19.043,-49.805,0.000
1627808622.355,-62.012,-21.973,-15.137,-60.059,0.000
1627808622.359,-7.324,-13.672,-14.648,-13.184,0.000
1627808622.363,-7.812,-14.648,-17.090,8.301,0.000
1627808622.367,-61.035,-20.020,-19.531,-31.738,0.000
1627808622.371,-72.266,-20.020,-17.090,-56.641,0.000
1627808622.375,-31.250,-8.789,-19.531,-24.902,0.000
1627808622.379,-3.906,-21.973,-16.602,11.230,0.000
1627808622.382,-39.062,-27.832,-15.625,-8.789,0.000
1627808622.386,-73.730,-22.949,-18.066,-57.617,0.000
1627808622.390,-29.785,-17.578,-12.695,-37.598,0.000
1627808622.394,19.043,-13.184,-13.672,11.230,0.000
1627808622.398,-10.742,-22.461,-17.090,-5.859,0.000
1627808622.402,-63.965,-27.344,-16.602,-57.129,0.000
1627808622.406,-44.922,-15.625,-18.066,-54.199,0.000
1627808622.410,9.277,-17.090,-12.695,3.418,0.000
1627808622.414,-6.836,-20.996,-10.254,17.578,0.000
1627808622.418,-57.129,-24.414,-17.578,-30.273,0.000
1627808622.422,-65.918,-24.414,-14.160,-50.293,0.000
1627808622.425,-18.555,-12.207,-10.742,-4.883,0.000
1627808622.429,-7.324,-10.742,-11.719,20.508,0.000
1627808622.433,-61.523,-21.484,-18.066,-31.738,0.000
1627808622.437,-80.566,-17.090,-22.461,-74.219,0.000
1627808622.441,-37.598,-10.742,-17.578,-45.898,0.000
1627808622.445,-4.883,-14.160,-16.602,-7.812,0.000
1627808622.449,-34.668,-19.043,-16.113,-29.297,0.000
1627808622.453,-72.266,-21.973,-19.531,-78.613,0.000
1627808622.457,-29.297,-9.766,-15.137,-61.035,0.000
1627808622.461,18.066,1.953,-6.836,-3.418,0.000
1627808622.465,-9.766,-6.836,-8.301,-7.324,0.000
1627808622.468,-62.500,-15.137,-11.230,-60.059,0.000
1627808622.472,-60.547,-14.648,-9.277,-73.242,0.000
1627808622.476,-15.625,-13.672,-6.836,-24.902,0.000
1627808622.480,-16.113,-12.695,-5.859,-2.441,0.000
1627808622.484,-65.430,-2.441,-8.301,-47.363,0.000
1627808622.488,-73.242,-21.973,-12.695,-77.148,0.000
1627808622.492,-22.461,-33.203,-15.137,-39.551,0.000
1627808622.496,-7.812,-24.414,-17.090,-5.371,0.000
1627808622.500,-43.945,-18.066,-13.184,-27.832,0.000
1627808622.504,-64.453,-18.555,-14.648,-64.453,0.000
1627808622.507,-28.320,-20.996,-16.602,-43.945,0.000
1627808622.511,7.812,-14.160,-11.230,3.906,0.000
1627808622.515,-25.391,-20.508,-11.230,-11.230,0.000
1627808622.519,-64.941,-23.926,-15.137,-59.570,0.000
1627808622.523,-37.598,-16.602,-17.090,-49.805,0.000
1627808622.527,3.418,-17.090,-18.555,-9.277,0.000
1627808622.531,-14.160,-17.090,-20.020,-13.672,0.000
1627808622.535,-61.523,-23.926,-26.855,-61.523,0.000
1627808622.539,-54.688,-30.273,-27.344,-72.754,0.000
1627808622.543,-2.441,-23.926,-19.531,-21.484,0.000
1627808622.547,2.930,-18.555,-18.555,1.953,0.000
1627808622.550,-41.016,-11.230,-22.461,-35.645,0.000
1627808622.554,-55.664,-18.066,-22.949,-65.430,0.000
1627808622.558,-17.578,-30.273,-20.020,-34.668,0.000
1627808622.562,0.977,-22.461,-16.602,5.371,0.000
1627808622.566,-40.527,-23.438,-18.555,-22.949,0.000
1627808622.570,-66.895,-26.367,-20.020,-65.430,0.000
1627808622.574,-34.180,-20.020,-19.043,-43.457,0.000
1627808622.578,1.953,-15.137,-19.043,-1.465,0.000
1627808622.582,-18.066,-14.160,-17.090,-10.742,0.000
1627808622.586,-64.453,-15.625,-21.973,-63.965,0.000
1627808622.590,-43.457,-20.020,-21.973,-59.082,0.000
1627808622.593,5.371,-16.602,-14.160,-4.395,0.000
1627808622.597,-11.719,-20.508,-15.137,-0.488,0.000
1627808622.601,-53.711,-22.949,-18.555,-48.340,0.000
1627808622.605,-51.758,-23.438,-20.508,-68.359,0.000
1627808622.609,-0.488,-20.508,-15.625,-21.973,0.000
1627808622.613,19.531,-11.719,-12.207,6.836,0.000
1627808622.617,-28.320,-19.531,-20.020,-35.156,0.000
1627808622.621,-49.805,-28.809,-24.902,-73.730,0.000
1627808622.625,-4.883,-19.043,-20.020,-40.527,0.000
1627808622.629,19.531,-13.672,-21.484,1.465,0.000
1627808622.633,-21.973,-20.508,-24.414,-26.367,0.000
1627808622.636,-53.223,-21.484,-21.973,-69.336,0.000
1627808622.640,-20.508,-15.137,-20.020,-51.270,0.000
1627808622.644,18.555,-15.625,-18.555,-3.906,0.000
1627808622.648,-0.977,-15.625,-20.020,-6.836,0.000
1627808622.652,-48.828,-20.996,-25.879,-58.105,0.000
1627808622.656,-43.457,-23.438,-25.391,-63.965,0.000
1627808622.660,4.395,-14.648,-16.602,-11.719,0.000
1627808622.664,0.488,-17.578,-14.160,3.418,0.000
1627808622.668,-53.223,-28.809,-21.973,-49.805,0.000
1627808622.672,-52.246,-25.879,-18.555,-72.754,0.000
1627808622.675,-1.953,-17.578,-9.766,-23.438,0.000
1627808622.679,5.371,-14.160,-10.254,1.953,0.000
1627808622.683,-44.922,-7.324,-16.602,-43.457,0.000
1627808622.687,-64.453,-17.090,-15.625,-78.125,0.000
1627808622.691,-21.973,-23.926,-12.207,-48.340,0.000
1627808622.695,5.371,-14.648,-8.789,-3.418,0.000
1627808622.699,-28.320,-14.648,-10.742,-19.531,0.000
1627808622.703,-61.523,-20.996,-13.672,-68.359,0.000
1627808622.707,-34.668,-18.555,-9.277,-55.664,0.000
1627808622.711,3.906,-13.672,-4.883,-5.859,0.000
1627808622.715,-18.066,-20.508,-7.812,-10.742,0.000
1627808622.718,-61.523,-22.949,-10.742,-53.711,0.000
1627808622.722,-50.293,-18.066,-10.254,-60.547,0.000
1627808622.726,-7.812,-17.578,-9.766,-20.020,0.000
1627808622.730,-11.230,-19.531,-11.230,-4.883,0.000
1627808622.734,-55.664,-20.508,-17.578,-42.969,0.000
1627808622.738,-62.988,-16.602,-17.578,-66.406,0.000
1627808622.742,-17.578,-16.113,-11.719,-28.320,0.000
1627808622.746,-3.418,-23.438,-12.207,2.930,0.000
1627808622.750,-34.668,-22.949,-11.719,-20.020,0.000
1627808622.754,-57.617,-17.578,-13.184,-57.129,0.000
1627808622.758,-33.203,-20.996,-13.672,-40.039,0.000
1627808622.761,0.977,-21.484,-9.766,0.000,0.000
1627808622.765,-26.855,-21.484,-11.719,-17.578,0.000
1627808622.769,-66.895,-23.438,-18.555,-64.941,0.000
1627808622.773,-46.875,-20.996,-20.508,-61.035,0.000
1627808622.777,-10.254,-15.137,-16.602,-11.719,0.000
1627808622.781,-29.297,-12.207,-18.555,-7.812,0.000
1627808622.785,-78.125,-28.809,-23.438,-60.547,0.000
1627808622.789,-75.684,-31.250,-20.020,-76.172,0.000
1627808622.793,-26.367,-23.438,-15.625,-29.297,0.000
1627808622.797,-19.043,-24.902,-18.555,-7.324,0.000
1627808622.801,-63.477,-20.996,-18.555,-47.363,0.000
1627808622.804,-73.242,-22.949,-14.648,-80.078,0.000
1627808622.808,-32.227,-27.344,-14.160,-47.852,0.000
1627808622.812,-11.719,-19.531,-15.137,-11.230,0.000
1627808622.816,-45.410,-9.766,-19.531,-31.738,0.000
1627808622.820,-73.730,-23.438,-20.996,-71.777,0.000
1627808622.824,-41.992,-33.691,-14.648,-52.246,0.000
1627808622.828,-0.977,-21.484,-7.812,0.000,0.000
1627808622.832,-31.738,-18.066,-12.695,-11.719,0.000
1627808622.836,-72.266,-20.508,-17.090,-60.547,0.000
1627808622.840,-52.246,-23.926,-16.602,-60.059,0.000
1627808622.843,-12.207,-22.461,-17.578,-16.602,0.000
1627808622.847,-25.391,-18.066,-15.137,-8.301,0.000
1627808622.851,-75.195,-20.996,-15.625,-56.641,0.000
1627808622.855,-77.148,-26.367,-15.137,-81.543,0.000
1627808622.859,-24.902,-21.484,-13.184,-37.598,0.000
1627808622.863,-16.602,-21.484,-10.254,-5.859,0.000
1627808622.867,-66.895,-28.320,-14.160,-43.945,0.000
1627808622.871,-80.566,-23.926,-17.090,-74.219,0.000
1627808622.875,-33.203,-18.555,-13.672,-38.574,0.000
1627808622.879,-5.859,-17.090,-11.230,0.000,0.000
1627808622.883,-47.852,-20.996,-16.113,-32.715,0.000
1627808622.886,-84.473,-26.367,-21.484,-80.566,0.000
1627808622.890,-56.641,-23.438,-17.090,-68.848,0.000
1627808622.894,-21.973,-21.973,-17.578,-25.391,0.000
1627808622.898,-41.992,-23.926,-21.973,-31.250,0.000
1627808622.902,-78.613,-24.414,-21.484,-75.195,0.000
1627808622.906,-63.965,-22.461,-19.531,-80.566,0.000
1627808622.910,-16.113,-13.184,-15.137,-32.227,0.000
1627808622.914,-16.113,-10.742,-14.160,-14.648,0.000
1627808622.918,-62.012,-18.555,-16.113,-53.711,0.000
1627808622.922,-72.754,-21.484,-20.996,-77.637,0.000
1627808622.926,-21.973,-10.254,-17.090,-36.133,0.000
1627808622.929,-0.977,-4.395,-12.207,0.000,0.000
1627808622.933,-50.293,-14.648,-12.207,-37.598,0.000
1627808622.937,-79.590,-21.973,-16.113,-78.613,0.000
1627808622.941,-40.039,-18.066,-17.090,-53.223,0.000
1627808622.945,-1.465,-8.301,-14.648,-4.883,0.000
1627808622.949,-36.133,-1.465,-19.043,-23.438,0.000
1627808622.953,-73.730,-20.508,-20.020,-69.336,0.000
1627808622.957,-46.875,-20.996,-15.625,-56.641,0.000
1627808622.961,-5.859,-12.695,-14.648,-8.301,0.000
1627808622.965,-24.414,-18.066,-17.090,-8.301,0.000
1627808622.968,-68.359,-21.973,-17.090,-58.105,0.000
1627808622.972,-59.082,-19.531,-13.672,-72.266,0.000
1627808622.976,-10.254,-11.719,-14.160,-23.926,0.000
1627808622.980,-11.719,-19.043,-18.066,-0.977,0.000
1627808622.984,-53.711,-22.949,-13.672,-37.598,0.000
1627808622.988,-62.012,-17.578,-14.160,-64.941,0.000
1627808622.992,-16.113,-18.555,-15.625,-30.762,0.000
1627808622.996,6.836,-23.438,-10.254,6.348,0.000
1627808623.000,-34.180,-23.926,-15.137,-17.090,0.000
1627808623.004,-57.617,-25.391,-21.484,-56.152,0.000
1627808623.008,-20.508,-24.414,-16.602,-34.668,0.000
1627808623.011,13.184,-19.531,-11.230,14.160,0.000
1627808623.015,-20.508,-19.043,-13.672,1.465,0.000
1627808623.019,-63.477,-17.578,-14.648,-47.852,0.000
1627808623.023,-33.203,-10.254,-12.207,-43.457,0.000
1627808623.027,8.301,-13.672,-16.602,2.441,0.000
1627808623.031,-16.113,-25.879,-19.531,0.977,0.000
1627808623.035,-56.641,-21.973,-22.461,-45.410,0.000
1627808623.039,-52.246,-4.395,-22.461,-62.988,0.000
1627808623.043,-0.977,-16.602,-17.090,-12.695,0.000
1627808623.047,8.301,-22.461,-16.602,14.648,0.000
1627808623.051,-40.039,-15.625,-17.578,-27.344,0.000
1627808623.054,-51.758,-22.461,-20.996,-60.059,0.000
1627808623.058,-7.324,-22.949,-19.531,-26.367,0.000
1627808623.062,18.555,-16.113,-16.602,12.695,0.000
1627808623.066,-26.855,-23.438,-24.902,-20.020,0.000
1627808623.070,-62.012,-31.738,-30.273,-66.406,0.000
1627808623.074,-29.297,-30.762,-26.367,-51.270,0.000
1627808623.078,6.348,-27.344,-19.531,-3.906,0.000
1627808623.082,-18.555,-25.879,-20.508,-6.836,0.000
1627808623.086,-60.547,-21.484,-22.461,-53.223,0.000
1627808623.090,-40.527,-19.531,-20.508,-60.547,0.000
1627808623.094,1.465,-18.066,-19.043,-16.113,0.000
1627808623.097,-6.836,-9.766,-15.137,-0.488,0.000
1627808623.101,-48.340,-16.113,-19.531,-46.875,0.000
1627808623.105,-53.711,-20.020,-21.973,-69.824,0.000
1627808623.109,-5.859,-9.766,-16.113,-24.902,0.000
1627808623.113,14.648,-10.742,-10.742,8.789,0.000
1627808623.117,-25.391,-20.020,-14.160,-26.367,0.000
1627808623.121,-53.223,-21.973,-15.137,-63.965,0.000
1627808623.125,-17.090,-21.973,-8.789,-38.574,0.000
1627808623.129,15.137,-15.625,-6.348,3.418,0.000
1627808623.133,-23.438,-14.160,-12.695,-17.090,0.000
1627808623.137,-68.848,-14.160,-22.461,-70.801,0.000
1627808623.140,-35.645,-23.438,-17.090,-53.223,0.000
1627808623.144,7.812,-18.555,-11.719,2.441,0.000
1627808623.148,-15.625,-18.555,-16.602,-1.465,0.000
1627808623.152,-51.758,-24.902,-18.066,-50.781,0.000
1627808623.156,-39.551,-14.160,-15.137,-55.664,0.000
1627808623.160,-2.441,-11.230,-13.184,-7.812,0.000
1627808623.164,-11.230,-20.020,-15.625,-0.488,0.000
1627808623.168,-64.453,-29.785,-22.949,-48.828,0.000
1627808623.172,-70.801,-31.738,-18.066,-68.848,0.000
1627808623.176,-15.625,-23.438,-6.836,-23.438,0.000
1627808623.179,5.859,-16.602,-4.883,16.113,0.000
1627808623.183,-39.551,-23.926,-11.719,-17.090,0.000
1627808623.187,-70.312,-31.738,-15.137,-64.453,0.000
1627808623.191,-34.180,-29.785,-16.602,-43.457,0.000
1627808623.195,0.000,-22.949,-16.602,2.930,0.000
1627808623.199,-23.438,-15.137,-12.207,-8.301,0.000
1627808623.203,-60.059,-19.043,-17.578,-62.500,0.000
1627808623.207,-41.504,-19.531,-19.043,-56.152,0.000
1627808623.211,-0.488,-13.672,-14.648,0.977,0.000
1627808623.215,-13.672,-17.578,-15.625,6.836,0.000
1627808623.219,-58.105,-23.438,-22.461,-39.551,0.000
1627808623.222,-54.199,-24.902,-22.949,-55.176,0.000
1627808623.226,-3.418,-21.484,-18.066,-12.207,0.000
1627808623.230,0.977,-19.531,-16.602,11.230,0.000
1627808623.234,-45.410,-24.902,-20.020,-27.832,0.000
1627808623.238,-55.664,-23.926,-21.973,-57.617,0.000
1627808623.242,-15.137,-10.254,-19.531,-25.391,0.000
1627808623.246,1.953,-10.254,-20.508,7.812,0.000
1627808623.250,-38.086,-27.832,-20.508,-22.461,0.000
1627808623.254,-74.707,-28.320,-20.996,-68.359,0.000
1627808623.258,-34.180,-16.602,-16.113,-41.992,0.000
1627808623.261,10.742,-12.207,-13.672,9.277,0.000
1627808623.265,-12.695,-18.066,-19.043,-4.395,0.000
1627808623.269,-50.781,-24.414,-23.926,-55.176,0.000
1627808623.273,-33.203,-26.367,-21.484,-55.664,0.000
1627808623.277,11.230,-23.438,-14.160,-3.418,0.000
1627808623.281,1.953,-18.066,-10.742,10.254,0.000
1627808623.285,-49.316,-20.996,-15.137,-40.527,0.000
1627808623.289,-44.922,-19.531,-15.625,-58.594,0.000
1627808623.293,8.301,-15.625,-11.719,-9.766,0.000
1627808623.297,13.184,-17.090,-13.672,10.742,0.000
1627808623.301,-33.691,-21.484,-17.090,-28.320,0.000
1627808623.304,-53.223,-19.531,-16.602,-57.129,0.000
1627808623.308,-14.648,-20.508,-15.137,-29.297,0.000
1627808623.312,12.207,-19.531,-9.766,13.184,0.000
1627808623.316,-20.508,-16.113,-10.742,-2.930,0.000
1627808623.320,-62.012,-24.414,-16.602,-50.781,0.000
1627808623.324,-35.645,-28.809,-13.184,-43.945,0.000
1627808623.328,3.418,-16.113,-12.207,0.000,0.000
1627808623.332,-20.020,-2.930,-14.648,-4.883,0.000
1627808623.336,-55.176,-20.996,-11.230,-48.340,0.000
1627808623.340,-46.387,-25.391,-9.766,-53.223,0.000
1627808623.344,-12.207,-18.066,-11.230,-9.766,0.000
1627808623.347,-16.113,-21.973,-8.789,1.953,0.000
1627808623.351,-57.129,-20.508,-10.742,-37.109,0.000
1627808623.355,-64.941,-21.484,-12.695,-66.895,0.000
1627808623.359,-18.066,-20.020,-8.301,-29.785,0.000
1627808623.363,0.977,-17.090,-5.859,4.395,0.000
1627808623.367,-43.945,-21.973,-11.719,-27.344,0.000
1627808623.371,-70.312,-22.461,-15.137,-61.035,0.000
1627808623.375,-23.926,-19.531,-10.254,-28.320,0.000
1627808623.379,4.883,-19.043,-6.348,12.695,0.000
1627808623.383,-38.574,-27.832,-13.672,-17.578,0.000
1627808623.387,-73.242,-33.203,-22.949,-66.406,0.000
1627808623.390,-42.969,-31.738,-19.043,-53.223,0.000
1627808623.394,-0.488,-24.902,-14.160,-7.324,0.000
1627808623.398,-26.855,-22.461,-17.578,-12.207,0.000
1627808623.402,-72.754,-33.691,-19.043,-57.617,0.000
1627808623.406,-55.664,-26.855,-17.578,-62.988,0.000
1627808623.410,-4.883,-13.184,-12.695,-13.672,0.000
1627808623.414,-7.812,-31.738,-10.742,3.906,0.000
1627808623.418,-53.711,-37.109,-17.090,-41.992,0.000
1627808623.422,-65.430,-25.391,-14.648,-70.801,0.000
1627808623.426,-22.461,-23.438,-12.207,-30.762,0.000
1627808623.429,-0.977,-24.902,-7.812,8.301,0.000
1627808623.433,-53.711,-27.832,-9.766,-26.367,0.000
1627808623.437,-82.031,-29.785,-14.160,-65.430,0.000
1627808623.441,-35.156,-20.020,-7.324,-36.621,0.000
1627808623.445,-7.812,-18.066,-3.906,3.418,0.000
1627808623.449,-41.504,-21.484,-10.254,-9.766,0.000
1627808623.453,-84.961,-31.738,-19.043,-63.477,0.000
1627808623.457,-58.594,-32.715,-16.113,-63.477,0.000
1627808623.461,-1.953,-24.414,-10.254,-9.766,0.000
1627808623.465,-10.254,-20.508,-8.789,0.488,0.000
1627808623.469,-61.523,-24.414,-16.602,-47.852,0.000
1627808623.472,-62.500,-22.461,-22.461,-65.430,0.000
1627808623.476,-15.625,-18.066,-18.555,-24.902,0.000
1627808623.480,-17.090,-18.066,-19.043,-8.789,0.000
1627808623.484,-64.453,-17.090,-18.066,-49.316,0.000
1627808623.488,-69.824,-20.996,-12.207,-68.359,0.000
1627808623.492,-18.555,-10.254,-15.137,-32.227,0.000
1627808623.496,9.277,-10.254,-23.926,1.953,0.000
1627808623.500,-30.273,-20.508,-26.367,-25.879,0.000
1627808623.504,-60.059,-21.484,-30.273,-70.801,0.000
1627808623.508,-26.855,-17.578,-30.273,-50.781,0.000
1627808623.512,8.789,-18.555,-25.879,-4.883,0.000
1627808623.515,-20.508,-20.508,-24.902,-16.113,0.000
1627808623.519,-62.500,-17.578,-30.273,-63.477,0.000
1627808623.523,-39.062,-13.184,-29.785,-60.059,0.000
1627808623.527,14.648,-5.859,-25.391,-4.395,0.000
1627808623.531,10.742,2.441,-28.320,3.906,0.000
1627808623.535,-37.109,-16.113,-31.738,-51.758,0.000
1627808623.539,-38.086,-21.973,-31.250,-71.289,0.000
1627808623.543,18.066,-10.742,-25.879,-23.438,0.000
1627808623.547,33.203,-6.348,-21.973,5.859,0.000
1627808623.551,-11.230,-10.742,-27.344,-33.691,0.000
1627808623.555,-29.785,-14.160,-29.297,-68.848,0.000
1627808623.558,14.648,-10.742,-24.902,-30.273,0.000
1627808623.562,37.598,-9.766,-17.578,18.066,0.000
1627808623.566,-1.953,-12.695,-15.625,1.953,0.000
1627808623.570,-43.457,-20.020,-18.555,-43.457,0.000
1627808623.574,-18.555,-17.090,-17.090,-26.367,0.000
1627808623.578,21.484,-7.324,-9.766,30.762,0.000
1627808623.582,-10.742,-11.230,-12.207,25.879,0.000
1627808623.586,-49.805,-15.625,-21.484,-20.508,0.000
1627808623.590,-30.762,-15.625,-21.973,-29.297,0.000
1627808623.594,17.578,-13.672,-16.113,15.625,0.000
1627808623.597,8.301,-10.254,-19.043,27.344,0.000
1627808623.601,-41.992,-19.043,-23.926,-20.996,0.000
1627808623.605,-43.457,-25.879,-20.508,-47.852,0.000
1627808623.609,1.465,-15.137,-18.555,-10.742,0.000
1627808623.613,13.184,-16.602,-18.555,22.949,0.000
1627808623.617,-38.574,-23.926,-19.531,-16.602,0.000
1627808623.621,-66.895,-21.484,-16.113,-61.035,0.000
1627808623.625,-23.926,-16.113,-13.184,-29.297,0.000
1627808623.629,6.348,-12.207,-9.766,15.137,0.000
1627808623.633,-27.344,-10.254,-7.324,-6.348,0.000
1627808623.637,-61.035,-19.531,-10.254,-55.664,0.000
1627808623.640,-37.109,-22.461,-14.648,-47.852,0.000
1627808623.644,8.789,-12.695,-12.695,4.883,0.000
1627808623.648,-6.836,-7.812,-11.719,4.395,0.000
1627808623.652,-52.246,-10.742,-11.230,-49.805,0.000
1627808623.656,-41.992,-8.301,-9.277,-59.082,0.000
1627808623.660,1.465,-8.789,-9.766,-14.648,0.000
1627808623.664,0.977,-8.789,-8.301,1.953,0.000
1627808623.668,-52.246,-9.766,-10.254,-42.480,0.000
1627808623.672,-66.406,-3.906,-7.812,-64.453,0.000
1627808623.676,-10.742,-12.207,-1.465,-19.531,0.000
1627808623.680,9.766,-16.113,-1.465,12.207,0.000
1627808623.683,-31.250,-18.066,-10.254,-20.508,0.000
1627808623.687,-62.012,-23.438,-19.043,-62.012,0.000
1627808623.691,-27.344,-17.578,-13.184,-37.109,0.000
1627808623.695,5.371,-15.137,-9.766,16.113,0.000
1627808623.699,-25.391,-20.996,-12.207,5.371,0.000
1627808623.703,-62.500,-15.625,-11.230,-41.504,0.000
1627808623.707,-37.109,-8.789,-8.789,-35.645,0.000
1627808623.711,8.789,-8.789,-7.324,15.137,0.000
1627808623.715,-5.859,-17.090,-12.695,14.160,0.000
1627808623.719,-50.781,-19.531,-18.555,-37.598,0.000
1627808623.722,-44.922,-12.207,-11.230,-48.828,0.000
1627808623.726,-2.930,-17.090,-5.371,-8.789,0.000
1627808623.730,-3.418,-28.809,-5.371,13.672,0.000
1627808623.734,-52.734,-24.414,-10.742,-22.461,0.000
1627808623.738,-67.871,-16.113,-14.648,-52.246,0.000
1627808623.742,-17.578,-21.484,-12.695,-14.160,0.000
1627808623.746,7.812,-17.090,-11.719,24.902,0.000
1627808623.750,-28.809,-18.066,-11.230,-3.906,0.000
1627808623.754,-64.453,-23.438,-16.113,-53.223,0.000
1627808623.758,-33.691,-20.508,-12.207,-34.668,0.000
1627808623.762,9.766,-13.672,-5.371,15.625,0.000
1627808623.765,-17.090,-18.066,-6.348,6.348,0.000
1627808623.769,-61.523,-18.555,-11.719,-41.016,0.000
1627808623.773,-50.293,-14.160,-17.090,-43.457,0.000
1627808623.777,-9.277,-15.625,-14.160,0.488,0.000
1627808623.781,-14.648,-20.508,-13.184,6.836,0.000
1627808623.785,-59.082,-23.926,-15.137,-36.621,0.000
1627808623.789,-61.523,-25.391,-17.578,-59.570,0.000
1627808623.793,-7.324,-18.555,-13.184,-16.113,0.000
1627808623.797,10.742,-17.578,-7.324,16.113,0.000
1627808623.801,-34.668,-19.531,-11.719,-16.602,0.000
1627808623.805,-50.781,-21.484,-9.766,-46.387,0.000
1627808623.808,-12.207,-15.137,-7.812,-18.555,0.000
1627808623.812,11.230,-1.465,-7.324,21.484,0.000
1627808623.816,-17.578,-15.625,-7.324,3.418,0.000
1627808623.820,-55.664,-21.973,-13.672,-49.316,0.000
1627808623.824,-38.086,-24.414,-12.695,-46.387,0.000
1627808623.828,-0.977,-21.973,-8.789,-4.395,0.000
1627808623.832,-20.508,-17.578,-11.230,-11.230,0.000
1627808623.836,-68.359,-24.414,-15.137,-65.918,0.000
1627808623.840,-57.129,-22.949,-17.090,-73.242,0.000
1627808623.844,-6.836,-13.184,-12.695,-20.996,0.000
1627808623.847,-12.207,-26.367,-12.207,-5.859,0.000
1627808623.851,-63.965,-33.691,-15.625,-45.898,0.000
1627808623.855,-64.453,-23.438,-14.160,-62.988,0.000
1627808623.859,-14.160,-15.625,-11.719,-23.438,0.000
1627808623.863,0.488,-15.137,-9.277,10.742,0.000
1627808623.867,-38.086,-14.160,-12.695,-16.602,0.000
1627808623.871,-65.918,-25.879,-20.996,-66.406,0.000
1627808623.875,-29.785,-30.273,-14.648,-43.945,0.000
1627808623.879,5.859,-19.531,-12.695,4.395,0.000
1627808623.883,-22.461,-20.996,-20.020,-16.602,0.000
1627808623.887,-61.523,-25.391,-18.555,-66.406,0.000
1627808623.891,-34.180,-22.461,-8.301,-56.641,0.000
1627808623.894,11.230,-17.090,-7.324,-8.301,0.000
1627808623.898,-7.324,-20.508,-11.719,-7.324,0.000
1627808623.902,-57.617,-20.996,-13.672,-54.199,0.000
1627808623.906,-55.176,-18.066,-16.602,-68.359,0.000
1627808623.910,-9.277,-18.555,-12.207,-20.020,0.000
1627808623.914,-7.812,-21.484,-9.766,6.836,0.000
1627808623.918,-47.852,-23.926,-14.648,-32.227,0.000
1627808623.922,-60.059,-23.438,-12.207,-62.988,0.000
1627808623.926,-20.996,-21.973,-9.766,-26.855,0.000
1627808623.930,-0.977,-17.090,-12.207,13.672,0.000
1627808623.933,-39.062,-17.090,-13.672,-12.207,0.000
1627808623.937,-64.453,-30.273,-15.137,-53.711,0.000
1627808623.941,-32.715,-34.180,-17.090,-39.062,0.000
1627808623.945,0.000,-23.926,-15.625,4.395,0.000
1627808623.949,-28.809,-20.996,-16.602,-9.766,0.000
1627808623.953,-71.777,-26.855,-18.555,-58.594,0.000
1627808623.957,-57.129,-28.809,-18.555,-58.594,0.000
1627808623.961,-12.207,-24.902,-17.578,-9.277,0.000
1627808623.965,-22.461,-28.320,-11.230,2.930,0.000
1627808623.969,-62.988,-33.203,-8.789,-39.551,0.000
1627808623.973,-58.105,-29.297,-10.742,-59.570,0.000
1627808623.976,-10.742,-20.996,-9.766,-17.578,0.000
1627808623.980,1.465,-17.090,-9.277,11.719,0.000
1627808623.984,-39.551,-22.949,-16.602,-24.902,0.000
1627808623.988,-52.734,-20.996,-18.555,-57.129,0.000
1627808623.992,-11.230,-20.020,-15.625,-24.414,0.000
1627808623.996,7.812,-20.996,-16.602,13.184,0.000
1627808624.000,-31.250,-20.020,-19.043,-10.742,0.000
1627808624.004,-68.848,-27.832,-22.461,-60.059,0.000
1627808624.008,-38.086,-21.973,-21.973,-45.898,0.000
1627808624.012,1.465,-8.301,-18.555,7.324,0.000
1627808624.016,-24.414,-22.461,-18.555,7.324,0.000
1627808624.019,-66.406,-35.645,-16.113,-35.156,0.000
1627808624.023,-47.852,-26.367,-13.184,-33.691,0.000
1627808624.027,-1.465,-22.949,-14.648,14.160,0.000
1627808624.031,-7.324,-25.391,-14.648,22.461,0.000
1627808624.035,-50.781,-23.926,-18.066,-24.902,0.000
1627808624.039,-52.246,-21.973,-21.484,-52.246,0.000
1627808624.043,-6.836,-18.066,-17.578,-15.137,0.000
1627808624.047,17.090,-11.230,-12.695,18.555,0.000
1627808624.051,-23.438,-12.695,-12.207,-11.719,0.000
1627808624.055,-53.223,-15.625,-16.602,-51.758,0.000
1627808624.058,-15.625,-16.113,-13.672,-25.879,0.000
1627808624.062,18.066,-15.625,-11.719,16.602,0.000
1627808624.066,-13.184,-13.672,-18.066,-1.465,0.000
1627808624.070,-47.852,-18.066,-20.508,-43.457,0.000
1627808624.074,-12.695,-10.742,-13.672,-24.414,0.000
1627808624.078,32.227,6.348,-7.324,24.902,0.000
1627808624.082,13.184,-11.719,-4.883,20.508,0.000
1627808624.086,-36.621,-20.996,-10.742,-29.297,0.000
1627808624.090,-35.156,-15.625,-11.719,-44.434,0.000
1627808624.094,7.324,-5.859,-8.789,1.953,0.000
1627808624.098,11.719,-10.742,-7.324,21.973,0.000
1627808624.101,-34.180,-16.113,-9.277,-22.949,0.000
1627808624.105,-48.828,-11.230,-14.160,-52.734,0.000
1627808624.109,0.488,-12.695,-12.695,-12.695,0.000
1627808624.113,20.508,-9.766,-14.648,22.949,0.000
1627808624.117,-21.484,-14.648,-20.020,-12.207,0.000
1627808624.121,-55.176,-22.949,-21.973,-59.082,0.000
1627808624.125,-20.996,-17.090,-20.996,-39.551,0.000
1627808624.129,13.184,-15.137,-18.066,9.277,0.000
1627808624.133,-15.137,-23.438,-19.043,-6.348,0.000
1627808624.137,-55.664,-31.250,-20.996,-58.594,0.000
1627808624.141,-38.086,-22.461,-16.602,-55.176,0.000
1627808624.144,12.207,-18.066,-7.812,-2.930,0.000
1627808624.148,0.977,-21.484,-9.277,1.465,0.000
1627808624.152,-51.758,-23.438,-15.625,-55.176,0.000
1627808624.156,-49.805,-17.578,-15.137,-68.359,0.000
1627808624.160,2.930,-11.719,-9.766,-14.648,0.000
1627808624.164,7.324,-8.789,-12.695,-0.977,0.000
1627808624.168,-43.945,-11.230,-18.555,-43.457,0.000
1627808624.172,-52.734,-11.230,-17.090,-63.965,0.000
1627808624.176,-0.488,-5.371,-11.719,-20.996,0.000
1627808624.180,20.508,-2.930,-11.719,12.695,0.000
1627808624.184,-18.066,-2.930,-12.695,-17.578,0.000
1627808624.187,-47.852,-9.766,-17.090,-58.105,0.000
1627808624.191,-22.461,-16.602,-19.043,-41.504,0.000
1627808624.195,12.207,-14.160,-19.531,4.395,0.000
1627808624.199,-7.812,-19.531,-24.902,-4.883,0.000
1627808624.203,-47.852,-14.648,-26.367,-51.758,0.000
1627808624.207,-32.715,-7.812,-20.508,-47.852,0.000
1627808624.211,11.719,-12.695,-12.695,3.418,0.000
1627808624.215,-2.930,-9.277,-10.742,11.719,0.000
1627808624.219,-48.828,-15.137,-12.695,-32.227,0.000
1627808624.223,-42.969,-20.996,-13.184,-50.293,0.000
1627808624.226,6.348,-14.160,-6.836,-3.906,0.000
1627808624.230,14.160,-13.672,-3.418,24.902,0.000
1627808624.234,-35.645,-11.230,-10.254,-17.578,0.000
1627808624.238,-53.711,-6.836,-11.719,-51.758,0.000
1627808624.242,-8.301,-11.719,-5.371,-17.090,0.000
1627808624.246,11.719,-13.184,-6.836,21.973,0.000
1627808624.250,-29.297,-16.602,-12.207,-0.977,0.000
1627808624.254,-55.664,-20.508,-16.602,-46.387,0.000
1627808624.258,-15.625,-18.066,-15.625,-29.297,0.000
1627808624.262,21.484,-16.602,-15.625,18.555,0.000
1627808624.266,-1.465,-20.020,-19.043,12.695,0.000
1627808624.269,-42.969,-22.949,-17.090,-33.691,0.000
1627808624.273,-28.809,-11.719,-9.766,-36.133,0.000
1627808624.277,24.414,-13.672,-3.418,9.766,0.000
1627808624.281,11.719,-20.996,-7.324,14.160,0.000
1627808624.285,-41.016,-20.508,-21.484,-41.016,0.000
1627808624.289,-47.852,-23.926,-22.461,-68.848,0.000
1627808624.293,-10.254,-21.484,-17.090,-28.320,0.000
1627808624.297,0.488,-28.320,-18.555,2.441,0.000
1627808624.301,-40.039,-29.785,-20.508,-32.227,0.000
1627808624.305,-62.988,-17.090,-19.043,-62.500,0.000
1627808624.309,-23.926,-21.484,-10.742,-29.785,0.000
1627808624.312,4.883,-20.508,-11.230,10.742,0.000
1627808624.316,-29.785,-18.066,-14.648,-11.719,0.000
1627808624.320,-65.918,-22.949,-14.160,-61.035,0.000
1627808624.324,-41.504,-24.902,-12.695,-51.758,0.000
1627808624.328,-4.395,-19.043,-8.789,-7.324,0.000
1627808624.332,-22.949,-19.531,-8.789,-10.742,0.000
1627808624.336,-64.941,-21.484,-14.160,-58.594,0.000
1627808624.340,-54.688,-21.973,-16.113,-67.871,0.000
1627808624.344,-3.906,-19.531,-12.695,-15.137,0.000
1627808624.348,-2.441,-7.812,-12.695,8.301,0.000
1627808624.352,-52.246,-22.461,-15.137,-34.180,0.000
1627808624.355,-59.570,-31.738,-14.648,-57.617,0.000
1627808624.359,-14.648,-23.926,-8.789,-19.531,0.000
1627808624.363,0.977,-28.320,-6.348,11.230,0.000
1627808624.367,-36.621,-32.715,-8.789,-16.602,0.000
1627808624.371,-66.406,-34.180,-10.254,-58.594,0.000
1627808624.375,-31.250,-22.461,-6.836,-34.668,0.000
1627808624.379,0.977,-24.902,-3.418,9.277,0.000
1627808624.383,-36.621,-30.762,-6.348,-10.254,0.000
1627808624.387,-75.684,-31.250,-11.719,-59.082,0.000
1627808624.391,-56.152,-34.180,-10.742,-57.617,0.000
1627808624.394,-8.789,-20.996,-7.324,-4.395,0.000
1627808624.398,-11.230,-20.508,-6.348,9.277,0.000
1627808624.402,-57.129,-30.762,-9.277,-35.645,0.000
1627808624.406,-53.223,-27.344,-9.277,-50.781,0.000
1627808624.410,-2.930,-12.207,-5.859,-8.789,0.000
1627808624.414,-3.906,-4.395,-6.348,7.812,0.000
1627808624.418,-51.758,-24.414,-5.371,-30.762,0.000
1627808624.422,-66.406,-26.367,-6.348,-61.523,0.000
1627808624.426,-26.367,-14.160,-4.395,-24.902,0.000
1627808624.430,-2.930,-13.672,-4.883,12.695,0.000
1627808624.434,-44.434,-27.344,-13.184,-22.461,0.000
1627808624.437,-74.219,-27.832,-11.230,-63.965,0.000
1627808624.441,-34.668,-15.625,-2.441,-40.039,0.000
1627808624.445,2.441,-12.207,-4.395,8.301,0.000
1627808624.449,-32.715,-17.578,-12.207,-7.324,0.000
1627808624.453,-69.336,-21.973,-12.695,-54.199,0.000
1627808624.457,-46.875,-16.113,-10.742,-50.293,0.000
1627808624.461,-10.742,-12.695,-8.301,-13.672,0.000
1627808624.465,-20.508,-13.184,-6.836,-8.789,0.000
1627808624.469,-66.895,-10.254,-14.160,-51.758,0.000
1627808624.473,-68.359,-4.395,-15.137,-65.918,0.000
1627808624.477,-22.949,7.324,-13.672,-22.461,0.000
1627808624.480,-10.254,-6.348,-16.113,0.977,0.000
1627808624.484,-52.246,-15.137,-14.160,-38.574,0.000
1627808624.488,-73.242,-12.207,-12.695,-72.754,0.000
1627808624.492,-27.832,-12.207,-11.719,-41.016,0.000
1627808624.496,5.371,-8.789,-11.719,1.465,0.000
1627808624.500,-34.668,-14.648,-18.066,-22.949,0.000
1627808624.504,-70.312,-20.508,-25.391,-68.359,0.000
1627808624.508,-35.156,-20.996,-19.531,-49.316,0.000
1627808624.512,-1.953,-23.926,-18.066,-3.906,0.000
1627808624.516,-29.785,-23.926,-18.066,-10.254,0.000
1627808624.519,-73.242,-29.785,-14.648,-59.082,0.000
1627808624.523,-61.035,-28.320,-12.207,-62.500,0.000
1627808624.527,-16.602,-18.066,-11.230,-16.602,0.000
1627808624.531,-19.531,-23.438,-12.207,-3.418,0.000
1627808624.535,-66.895,-28.809,-16.602,-42.969,0.000
1627808624.539,-76.660,-12.695,-17.578,-68.359,0.000
1627808624.543,-30.273,-0.977,-13.672,-34.668,0.000
1627808624.547,-7.324,-20.020,-10.742,-1.465,0.000
1627808624.551,-43.945,-19.043,-10.254,-26.855,0.000
1627808624.555,-70.801,-21.484,-13.672,-69.336,0.000
1627808624.559,-32.227,-27.344,-16.113,-51.270,0.000
1627808624.562,-1.465,-18.066,-12.207,-3.906,0.000
1627808624.566,-30.762,-18.066,-12.695,-20.996,0.000
1627808624.570,-61.035,-22.461,-15.137,-67.871,0.000
1627808624.574,-36.621,-20.996,-11.719,-56.152,0.000
1627808624.578,10.254,-14.160,-7.324,-1.953,0.000
1627808624.582,-7.812,-16.602,-7.324,-0.977,0.000
1627808624.586,-64.941,-26.367,-14.648,-54.688,0.000
1627808624.590,-62.988,-33.203,-19.043,-70.801,0.000
1627808624.594,-12.207,-31.738,-10.742,-27.344,0.000
1627808624.598,-4.883,-20.508,-8.789,-1.465,0.000
1627808624.602,-53.711,-13.184,-13.672,-46.875,0.000
1627808624.605,-63.477,-23.438,-12.207,-74.707,0.000
1627808624.609,-16.602,-16.602,-8.789,-30.762,0.000
1627808624.613,4.395,-10.742,-11.719,0.488,0.000
1627808624.617,-32.715,-8.789,-16.602,-29.297,0.000
1627808624.621,-64.453,-26.367,-18.555,-67.871,0.000
1627808624.625,-32.227,-28.809,-15.625,-43.945,0.000
1627808624.629,3.418,-14.160,-9.277,3.906,0.000
1627808624.633,-23.926,-16.602,-7.324,-7.324,0.000
1627808624.637,-66.406,-15.625,-16.113,-53.223,0.000
1627808624.641,-55.176,-17.090,-18.066,-51.270,0.000
1627808624.644,-8.789,-14.160,-13.672,-0.977,0.000
1627808624.648,-15.625,-16.602,-13.184,7.812,0.000
1627808624.652,-65.918,-21.973,-12.207,-36.133,0.000
1627808624.656,-65.918,-22.461,-10.742,-51.758,0.000
1627808624.660,-16.113,-28.320,-12.207,-10.254,0.000
1627808624.664,-5.371,-22.949,-13.672,13.672,0.000
1627808624.668,-46.875,-21.973,-16.602,-26.367,0.000
1627808624.672,-64.941,-27.344,-16.113,-63.477,0.000
1627808624.676,-25.391,-23.926,-11.719,-34.180,0.000
1627808624.680,-9.277,-20.020,-15.625,1.465,0.000
1627808624.684,-48.828,-26.855,-16.113,-21.973,0.000
1627808624.687,-77.637,-26.855,-15.625,-65.918,0.000
1627808624.691,-46.387,-19.043,-18.555,-54.688,0.000
1627808624.695,-9.766,-29.297,-15.625,-9.277,0.000
1627808624.699,-39.062,-26.855,-14.160,-16.602,0.000
1627808624.703,-82.520,-25.391,-20.508,-64.941,0.000
1627808624.707,-57.617,-24.414,-19.043,-63.965,0.000
1627808624.711,0.977,-13.184,-8.789,-7.324,0.000
1627808624.715,-7.324,-13.672,-11.230,2.930,0.000
1627808624.719,-53.223,-24.902,-17.578,-41.504,0.000
1627808624.723,-55.176,-27.832,-19.043,-60.547,0.000
1627808624.727,-4.395,-21.484,-13.184,-14.648,0.000
1627808624.730,6.348,-17.090,-12.695,13.184,0.000
1627808624.734,-48.828,-14.160,-18.555,-24.902,0.000
1627808624.738,-67.383,-17.090,-17.090,-62.988,0.000
1627808624.742,-15.137,-19.043,-14.160,-34.180,0.000
1627808624.746,14.160,-12.695,-11.230,7.324,0.000
1627808624.750,-27.832,-18.555,-12.695,-20.020,0.000
1627808624.754,-74.707,-23.438,-16.602,-68.359,0.000
1627808624.758,-43.457,-17.578,-13.184,-46.875,0.000
1627808624.762,8.789,-10.742,-9.766,11.719,0.000
1627808624.766,-12.695,-11.719,-14.648,8.301,0.000
1627808624.770,-48.828,-27.344,-9.766,-33.203,0.000
1627808624.773,-34.668,-26.855,-10.254,-41.016,0.000
1627808624.777,7.812,-23.438,-15.137,0.000,0.000
1627808624.781,11.719,-17.090,-12.695,18.555,0.000
1627808624.785,-34.668,-15.137,-12.207,-25.391,0.000
1627808624.789,-50.293,-15.625,-14.648,-58.105,0.000
1627808624.793,-9.277,-14.648,-14.648,-23.926,0.000
1627808624.797,6.836,-16.113,-11.719,12.695,0.000
1627808624.801,-36.133,-16.602,-12.207,-15.137,0.000
1627808624.805,-65.430,-13.672,-15.137,-58.105,0.000
1627808624.809,-24.902,-13.184,-20.508,-36.621,0.000
1627808624.812,11.230,-12.207,-16.602,8.789,0.000
1627808624.816,-23.438,-12.695,-13.184,-4.395,0.000
1627808624.820,-58.105,-13.672,-13.672,-46.387,0.000
1627808624.824,-30.273,-17.090,-14.648,-40.527,0.000
1627808624.828,11.719,-21.484,-15.625,5.371,0.000
1627808624.832,-7.812,-10.254,-19.531,5.371,0.000
1627808624.836,-54.199,-3.418,-22.949,-49.805,0.000
1627808624.840,-41.504,-20.996,-20.020,-64.453,0.000
1627808624.844,4.395,-15.625,-22.949,-16.602,0.000
1627808624.848,2.441,-7.812,-23.926,7.812,0.000
1627808624.852,-39.062,-12.207,-22.461,-29.785,0.000
1627808624.855,-52.246,-19.043,-21.484,-63.477,0.000
1627808624.859,-17.578,-17.090,-14.160,-30.762,0.000
1627808624.863,-0.488,-12.207,-9.766,7.812,0.000
1627808624.867,-38.574,-19.531,-15.137,-24.902,0.000
1627808624.871,-68.359,-21.484,-18.066,-73.730,0.000
1627808624.875,-32.715,-10.742,-12.207,-50.293,0.000
1627808624.879,8.301,-1.953,-6.836,2.930,0.000
1627808624.883,-19.043,-10.742,-8.301,-11.230,0.000
1627808624.887,-64.453,-21.973,-15.137,-66.406,0.000
1627808624.891,-42.969,-17.578,-18.066,-60.547,0.000
1627808624.895,3.418,-12.695,-16.602,-8.789,0.000
1627808624.898,-3.418,-16.113,-13.672,-3.418,0.000
1627808624.902,-50.781,-9.277,-19.531,-52.246,0.000
1627808624.906,-54.199,-14.648,-17.578,-68.359,0.000
1627808624.910,-2.930,-30.762,-7.812,-20.508,0.000
1627808624.914,12.207,-20.996,-9.277,8.789,0.000
1627808624.918,-32.715,-17.090,-10.742,-28.809,0.000
1627808624.922,-58.105,-20.996,-11.719,-65.918,0.000
1627808624.926,-18.066,-19.043,-10.742,-34.180,0.000
1627808624.930,10.742,-20.020,-8.789,1.953,0.000
1627808624.934,-31.738,-28.320,-8.789,-22.949,0.000
1627808624.938,-70.801,-30.762,-9.277,-61.523,0.000
1627808624.941,-29.297,-21.973,-6.836,-41.992,0.000
1627808624.945,14.160,-15.625,-5.859,8.301,0.000
1627808624.949,-17.090,-24.902,-14.160,-0.488,0.000
1627808624.953,-61.523,-28.320,-17.578,-49.316,0.000
1627808624.957,-42.969,-20.996,-13.672,-48.340,0.000
1627808624.961,6.348,-20.508,-11.230,1.953,0.000
1627808624.965,-0.488,-22.461,-11.230,14.160,0.000
1627808624.969,-44.922,-23.438,-11.719,-32.715,0.000
1627808624.973,-43.457,-24.414,-13.184,-51.758,0.000
1627808624.977,6.348,-11.230,-13.184,-9.766,0.000
1627808624.980,14.648,-5.859,-8.789,18.066,0.000
1627808624.984,-27.832,-20.020,-8.301,-16.113,0.000
1627808624.988,-57.617,-22.949,-15.625,-62.500,0.000
1627808624.992,-18.066,-10.742,-16.602,-38.574,0.000
1627808624.996,16.113,-6.348,-12.695,3.418,0.000
1627808625.000,-19.043,-21.484,-13.672,-19.043,0.000
1627808625.004,-56.152,-23.438,-17.578,-64.941,0.000
1627808625.008,-41.504,-25.391,-18.066,-61.523,0.000
1627808625.012,-3.906,-24.902,-17.578,-14.648,0.000
1627808625.016,-14.160,-17.578,-14.160,-9.277,0.000
1627808625.020,-55.176,-19.531,-15.137,-55.664,0.000
1627808625.023,-44.434,-19.531,-15.625,-58.105,0.000
1627808625.027,2.930,-16.113,-10.742,-3.418,0.000
1627808625.031,2.441,-15.625,-9.277,14.160,0.000
1627808625.035,-48.828,-21.484,-11.719,-29.297,0.000
1627808625.039,-62.988,-21.973,-15.625,-62.988,0.000
1627808625.043,-12.695,-11.719,-17.578,-25.391,0.000
1627808625.047,11.230,-19.043,-13.672,16.602,0.000
1627808625.051,-29.785,-22.949,-18.555,-15.625,0.000
1627808625.055,-50.781,-13.672,-19.043,-57.129,0.000
1627808625.059,-18.066,-8.301,-14.160,-37.109,0.000
1627808625.063,13.672,-11.719,-16.113,3.906,0.000
1627808625.066,-14.648,-15.137,-20.020,-11.230,0.000
1627808625.070,-58.105,-14.648,-22.461,-59.082,0.000
1627808625.074,-38.574,-15.625,-20.508,-56.641,0.000
1627808625.078,5.371,-16.602,-19.531,-9.766,0.000
1627808625.082,-11.719,-15.625,-17.578,-6.348,0.000
1627808625.086,-49.805,-14.160,-14.648,-44.922,0.000
1627808625.090,-38.086,-18.066,-14.648,-57.129,0.000
1627808625.094,3.906,-14.648,-15.137,-18.066,0.000
1627808625.098,8.789,-6.348,-14.160,2.441,0.000
1627808625.102,-40.039,-5.371,-15.625,-37.109,0.000
1627808625.105,-58.594,-8.301,-16.602,-67.871,0.000
1627808625.109,-12.207,-7.324,-17.090,-32.715,0.000
1627808625.113,11.719,-2.930,-18.555,8.301,0.000
1627808625.117,-35.156,-1.465,-22.461,-24.902,0.000
1627808625.121,-58.594,-15.137,-15.137,-63.477,0.000
1627808625.125,-17.090,-10.254,-5.859,-36.621,0.000
1627808625.129,12.207,-11.230,-7.324,3.906,0.000
1627808625.133,-16.602,-18.066,-9.766,-7.324,0.000
1627808625.137,-62.012,-18.555,-16.602,-58.105,0.000
1627808625.141,-49.316,-16.602,-14.648,-61.035,0.000
1627808625.145,0.000,-13.184,-7.812,-11.230,0.000
1627808625.148,-16.113,-17.090,-13.672,-7.324,0.000
1627808625.152,-68.359,-22.949,-17.578,-54.688,0.000
1627808625.156,-62.500,-20.020,-15.625,-69.336,0.000
1627808625.160,-11.230,-15.137,-17.578,-25.879,0.000
1627808625.164,2.930,-12.695,-18.555,-1.465,0.000
1627808625.168,-41.016,-18.066,-19.043,-37.109,0.000
1627808625.172,-66.895,-24.414,-23.438,-71.777,0.000
1627808625.176,-20.020,-10.254,-21.484,-37.598,0.000
1627808625.180,12.207,8.789,-12.695,6.348,0.000
1627808625.184,-35.156,-15.625,-16.602,-27.344,0.000
1627808625.188,-77.148,-34.180,-24.902,-76.660,0.000
1627808625.191,-41.504,-19.043,-21.484,-54.688,0.000
1627808625.195,-2.930,-14.160,-14.648,-6.836,0.000
1627808625.199,-25.879,-15.625,-13.184,-11.230,0.000
1627808625.203,-65.430,-17.090,-15.137,-55.176,0.000
1627808625.207,-48.828,-17.578,-12.207,-55.664,0.000
1627808625.211,1.465,-12.695,-8.301,-9.766,0.000
1627808625.215,-0.488,-12.207,-12.695,3.906,0.000
1627808625.219,-41.992,-14.648,-20.020,-40.527,0.000
1627808625.223,-54.199,-15.625,-20.996,-65.918,0.000
1627808625.227,-7.324,-13.184,-17.090,-18.066,0.000
1627808625.231,10.742,-21.973,-15.625,12.695,0.000
1627808625.234,-40.527,-27.832,-16.602,-27.832,0.000
1627808625.238,-64.453,-26.855,-18.066,-62.988,0.000
1627808625.242,-25.391,-22.949,-16.113,-30.273,0.000
1627808625.246,8.789,-19.043,-15.625,10.254,0.000
1627808625.250,-18.555,-18.066,-18.066,-11.719,0.000
1627808625.254,-59.082,-25.391,-20.020,-57.129,0.000
1627808625.258,-32.227,-16.113,-15.137,-50.781,0.000
1627808625.262,10.254,-3.418,-12.207,-7.324,0.000
1627808625.266,-14.648,-20.508,-13.184,-9.766,0.000
1627808625.270,-67.871,-30.273,-15.137,-59.082,0.000
1627808625.273,-55.176,-20.020,-15.625,-65.430,0.000
1627808625.277,-5.371,-16.602,-9.766,-16.113,0.000
1627808625.281,-6.836,-20.996,-5.371,1.465,0.000
1627808625.285,-51.270,-20.508,-7.324,-37.109,0.000
1627808625.289,-63.477,-17.578,-8.301,-62.500,0.000
1627808625.293,-17.578,-20.020,-5.859,-27.832,0.000
1627808625.297,0.488,-20.508,-7.324,2.930,0.000
1627808625.301,-40.039,-21.484,-14.160,-24.414,0.000
1627808625.305,-63.965,-22.461,-16.602,-61.523,0.000
1627808625.309,-24.902,-18.555,-17.578,-43.945,0.000
1627808625.313,9.277,-11.719,-17.578,-0.977,0.000
1627808625.316,-26.855,-21.484,-19.531,-16.602,0.000
1627808625.320,-70.312,-27.832,-22.461,-67.383,0.000
1627808625.324,-47.363,-23.438,-22.461,-68.359,0.000
1627808625.328,-3.906,-23.438,-18.555,-22.949,0.000
1627808625.332,-15.625,-22.949,-18.066,-14.160,0.000
1627808625.336,-66.406,-21.484,-21.484,-62.988,0.000
1627808625.340,-67.383,-30.762,-18.066,-78.125,0.000
1627808625.344,-20.020,-26.855,-14.648,-34.180,0.000
1627808625.348,-13.184,-21.484,-15.137,-14.648,0.000
1627808625.352,-56.152,-24.902,-18.066,-50.293,0.000
1627808625.356,-70.801,-25.391,-29.297,-80.566,0.000
1627808625.359,-30.762,-22.461,-30.273,-53.223,0.000
1627808625.363,-5.371,-18.066,-24.414,-12.695,0.000
1627808625.367,-38.086,-15.137,-23.926,-31.738,0.000
1627808625.371,-73.242,-22.461,-23.926,-74.707,0.000
1627808625.375,-45.410,-25.391,-21.484,-56.641,0.000
1627808625.379,-4.395,-15.137,-15.625,-9.766,0.000
1627808625.383,-25.391,-20.020,-12.207,-17.090,0.000
1627808625.387,-65.430,-26.367,-17.090,-57.617,0.000
1627808625.391,-53.223,-26.367,-25.879,-60.547,0.000
1627808625.395,-9.766,-18.555,-22.949,-13.672,0.000
1627808625.398,-15.625,-13.184,-19.531,2.441,0.000
1627808625.402,-59.570,-17.090,-24.414,-39.551,0.000
1627808625.406,-62.012,-17.090,-20.508,-57.617,0.000
1627808625.410,-14.160,-13.184,-15.137,-20.020,0.000
1627808625.414,0.488,-8.789,-16.113,6.836,0.000
1627808625.418,-46.875,-11.230,-20.508,-33.691,0.000
1627808625.422,-65.918,-13.672,-17.578,-70.312,0.000
1627808625.426,-23.926,-17.090,-14.648,-39.551,0.000
1627808625.430,1.465,-16.602,-15.625,-4.395,0.000
1627808625.434,-41.016,-24.414,-20.996,-32.715,0.000
1627808625.438,-77.148,-23.438,-21.973,-75.195,0.000
1627808625.441,-42.480,-20.020,-18.066,-56.641,0.000
1627808625.445,-2.441,-20.508,-14.160,-10.254,0.000
1627808625.449,-29.785,-22.461,-19.531,-20.508,0.000
1627808625.453,-72.754,-27.344,-26.367,-69.336,0.000
1627808625.457,-57.617,-23.926,-22.949,-69.824,0.000
1627808625.461,-10.742,-9.766,-20.508,-19.043,0.000
1627808625.465,-13.672,-27.832,-20.508,-5.859,0.000
1627808625.469,-59.082,-32.227,-19.043,-49.805,0.000
1627808625.473,-63.965,-15.625,-15.625,-65.918,0.000
1627808625.477,-17.090,-15.625,-10.742,-23.926,0.000
1627808625.481,-6.348,-20.996,-13.184,2.441,0.000
1627808625.484,-45.410,-23.926,-16.113,-28.320,0.000
1627808625.488,-66.895,-22.949,-18.066,-64.941,0.000
1627808625.492,-33.691,-18.555,-19.531,-48.340,0.000
1627808625.496,-8.789,-10.254,-18.066,-11.230,0.000
1627808625.500,-32.227,-18.555,-13.184,-17.090,0.000
1627808625.504,-65.430,-27.344,-19.531,-62.012,0.000
1627808625.508,-41.504,-19.043,-16.602,-50.781,0.000
1627808625.512,4.395,-15.625,-8.301,-2.441,0.000
1627808625.516,-20.020,-25.391,-12.695,-9.766,0.000
1627808625.520,-62.012,-27.832,-13.672,-50.781,0.000
1627808625.524,-46.387,-21.484,-9.277,-60.059,0.000
1627808625.527,0.977,-22.949,-11.230,-19.531,0.000
1627808625.531,4.395,-23.926,-14.160,7.324,0.000
1627808625.535,-40.527,-19.531,-11.230,-30.762,0.000
1627808625.539,-48.340,-18.555,-10.254,-58.594,0.000
1627808625.543,-5.859,-19.043,-12.695,-20.020,0.000
1627808625.547,7.324,-13.184,-17.578,11.719,0.000
1627808625.551,-27.344,-21.973,-21.484,-17.578,0.000
1627808625.555,-58.594,-20.020,-20.020,-56.152,0.000
1627808625.559,-25.879,-13.672,-17.090,-33.203,0.000
1627808625.563,13.672,-20.996,-13.184,12.695,0.000
1627808625.566,-15.625,-22.949,-14.648,-4.395,0.000
1627808625.570,-54.199,-21.973,-15.137,-49.805,0.000
1627808625.574,-31.738,-16.113,-11.719,-46.387,0.000
1627808625.578,15.625,-10.742,-3.906,2.930,0.000
1627808625.582,0.977,-11.230,-5.859,5.859,0.000
1627808625.586,-47.852,-13.672,-11.719,-43.457,0.000
1627808625.590,-48.340,-17.090,-14.160,-59.570,0.000
1627808625.594,0.000,-19.043,-13.672,-14.648,0.000
1627808625.598,10.742,-13.184,-11.719,9.766,0.000
1627808625.602,-40.527,-17.578,-20.020,-31.250,0.000
1627808625.606,-59.570,-21.484,-22.949,-61.035,0.000
1627808625.609,-16.113,-12.695,-14.160,-23.926,0.000
1627808625.613,7.324,-8.789,-10.254,13.672,0.000
1627808625.617,-32.715,-17.090,-12.207,-13.184,0.000
1627808625.621,-64.453,-25.879,-15.625,-58.594,0.000
1627808625.625,-32.715,-20.508,-15.625,-37.109,0.000
1627808625.629,6.348,-5.371,-11.719,14.160,0.000
1627808625.633,-10.254,-11.230,-10.742,7.324,0.000
1627808625.637,-53.711,-12.695,-20.508,-48.340,0.000
1627808625.641,-43.457,-16.602,-22.949,-58.105,0.000
1627808625.645,0.977,-24.414,-16.602,-9.277,0.000
1627808625.649,-0.488,-14.648,-14.648,8.789,0.000
1627808625.652,-41.992,-15.625,-17.090,-33.691,0.000
1627808625.656,-48.340,-20.020,-19.531,-63.477,0.000
1627808625.660,-4.883,-18.555,-13.184,-21.973,0.000
1627808625.664,8.789,-16.602,-9.277,6.836,0.000
1627808625.668,-35.156,-17.578,-15.137,-27.344,0.000
1627808625.672,-67.383,-24.414,-22.461,-65.918,0.000
1627808625.676,-30.762,-26.855,-21.973,-41.016,0.000
1627808625.680,3.418,-21.484,-20.020,3.418,0.000
1627808625.684,-27.344,-20.996,-23.438,-14.160,0.000
1627808625.688,-61.035,-20.996,-25.391,-59.082,0.000
1627808625.692,-34.180,-21.484,-20.508,-47.363,0.000
1627808625.695,12.207,-13.672,-13.672,1.465,0.000
1627808625.699,0.000,-9.766,-17.090,-3.906,0.000
1627808625.703,-39.551,-13.672,-22.461,-53.223,0.000
1627808625.707,-29.297,-17.090,-23.926,-62.988,0.000
1627808625.711,21.973,-19.043,-19.043,-12.207,0.000
1627808625.715,20.508,-17.090,-19.043,2.930,0.000
1627808625.719,-29.785,-20.020,-20.020,-37.109,0.000
1627808625.723,-46.387,-20.508,-17.090,-56.641,0.000
1627808625.727,-10.254,-18.066,-15.137,-16.602,0.000
1627808625.731,0.488,-20.020,-11.719,18.555,0.000
1627808625.734,-46.875,-27.832,-14.648,-10.254,0.000
1627808625.738,-75.195,-28.320,-16.602,-49.805,0.000
1627808625.742,-35.645,-18.066,-9.277,-23.438,0.000
1627808625.746,-1.465,-16.113,-6.836,16.602,0.000
1627808625.750,-31.738,-23.438,-12.207,-3.418,0.000
1627808625.754,-72.754,-26.367,-19.043,-51.758,0.000
1627808625.758,-50.293,-21.484,-11.719,-41.016,0.000
1627808625.762,-6.348,-22.949,-2.930,6.348,0.000
1627808625.766,-22.461,-21.484,-7.324,3.418,0.000
1627808625.770,-62.988,-21.973,-13.184,-42.480,0.000
1627808625.774,-59.570,-18.066,-13.184,-54.688,0.000
1627808625.777,-20.508,-11.719,-11.230,-15.137,0.000
1627808625.781,-6.836,-16.602,-8.301,10.254,0.000
1627808625.785,-50.781,-25.879,-14.648,-33.203,0.000
1627808625.789,-80.566,-31.250,-22.949,-76.172,0.000
1627808625.793,-34.180,-29.297,-18.555,-36.133,0.000
1627808625.797,-16.113,-21.973,-19.043,-2.441,0.000
1627808625.801,-52.734,-30.273,-19.043,-28.809,0.000
1627808625.805,-77.637,-35.156,-18.555,-66.895,0.000
1627808625.809,-42.969,-28.320,-15.625,-48.340,0.000
1627808625.813,-3.906,-20.996,-11.719,0.000,0.000
1627808625.817,-31.250,-16.113,-12.207,-9.277,0.000
1627808625.820,-78.613,-23.438,-19.043,-59.570,0.000
1627808625.824,-62.988,-22.949,-19.531,-60.547,0.000
1627808625.828,-15.137,-15.137,-15.625,-12.695,0.000
1627808625.832,-20.020,-14.160,-18.555,-3.418,0.000
1627808625.836,-62.988,-14.648,-22.461,-46.387,0.000
1627808625.840,-58.105,-20.996,-23.438,-63.965,0.000
1627808625.844,-6.836,-20.020,-16.113,-22.949,0.000
1627808625.848,0.000,-17.090,-10.742,1.953,0.000
1627808625.852,-42.480,-17.090,-13.184,-31.738,0.000
1627808625.856,-63.965,-9.766,-17.578,-68.359,0.000
1627808625.860,-15.625,-13.672,-12.207,-29.297,0.000
1627808625.863,20.020,-16.113,-10.254,13.184,0.000
1627808625.867,-22.461,-17.090,-18.555,-19.531,0.000
1627808625.871,-56.152,-19.043,-18.066,-60.547,0.000
1627808625.875,-25.391,-10.254,-12.695,-43.457,0.000
1627808625.879,16.602,-6.836,-14.648,2.441,0.000
1627808625.883,-3.418,-9.766,-18.555,-1.953,0.000
1627808625.887,-46.875,-14.160,-22.461,-50.781,0.000
1627808625.891,-39.551,-25.391,-24.902,-63.965,0.000
1627808625.895,-2.441,-26.367,-22.461,-21.484,0.000
1627808625.899,-7.324,-25.879,-19.531,-2.930,0.000
1627808625.902,-50.781,-27.832,-20.996,-43.457,0.000
1627808625.906,-59.082,-20.996,-22.949,-66.895,0.000
1627808625.910,-12.207,-14.160,-22.461,-25.879,0.000
1627808625.914,0.488,-14.160,-22.949,6.836,0.000
1627808625.918,-41.504,-14.648,-26.855,-26.855,0.000
1627808625.922,-60.059,-14.648,-25.879,-62.012,0.000
1627808625.926,-23.926,-13.672,-21.484,-36.133,0.000
1627808625.930,-0.488,-2.441,-22.949,2.441,0.000
1627808625.934,-36.621,-19.043,-19.531,-13.672,0.000
1627808625.938,-74.219,-27.344,-21.484,-59.082,0.000
1627808625.942,-44.434,-15.137,-21.973,-49.805,0.000
1627808625.945,3.906,-8.789,-15.137,-0.488,0.000
1627808625.949,-8.789,-15.137,-17.578,1.465,0.000
1627808625.953,-57.617,-22.461,-19.043,-43.945,0.000
1627808625.957,-49.316,-13.184,-18.066,-53.223,0.000
1627808625.961,2.441,-3.906,-17.090,-10.254,0.000
1627808625.965,4.395,-16.113,-16.602,6.348,0.000
1627808625.969,-36.621,-22.461,-19.043,-30.762,0.000
1627808625.973,-43.457,-21.484,-18.066,-55.664,0.000
1627808625.977,3.418,-9.766,-9.766,-18.066,0.000
1627808625.981,23.438,-6.836,-10.254,16.113,0.000
1627808625.985,-23.438,-16.113,-15.625,-13.184,0.000
1627808625.988,-61.035,-16.113,-17.090,-56.152,0.000
1627808625.992,-27.832,-15.137,-19.043,-38.086,0.000
1627808625.996,7.812,-8.301,-19.043,2.930,0.000
1627808626.000,-28.320,-2.441,-20.020,-13.672,0.000
1627808626.004,-62.500,-19.531,-17.090,-56.641,0.000
1627808626.008,-37.598,-17.578,-13.184,-52.246,0.000
1627808626.012,-2.441,-13.672,-13.184,-13.672,0.000
1627808626.016,-18.066,-18.555,-13.672,-8.789,0.000
1627808626.020,-58.105,-23.926,-19.531,-51.270,0.000
1627808626.024,-48.828,-19.531,-16.602,-61.523,0.000
1627808626.027,4.395,-7.324,-9.277,-9.277,0.000
1627808626.031,12.207,-9.766,-13.184,13.672,0.000
1627808626.035,-36.133,-18.555,-19.531,-26.367,0.000
1627808626.039,-58.105,-17.090,-24.902,-57.129,0.000
1627808626.043,-26.367,-16.602,-28.320,-32.227,0.000
1627808626.047,0.977,-14.160,-23.438,3.418,0.000
1627808626.051,-30.273,-11.719,-21.484,-14.648,0.000
1627808626.055,-59.570,-11.719,-27.344,-61.035,0.000
1627808626.059,-26.855,-13.184,-23.926,-50.293,0.000
1627808626.063,13.672,-9.277,-16.113,-3.418,0.000
1627808626.067,-18.555,-7.812,-16.113,-14.648,0.000
1627808626.070,-62.988,-15.137,-19.043,-61.523,0.000
1627808626.074,-46.875,-18.066,-20.508,-61.035,0.000
1627808626.078,0.000,-14.160,-14.160,-11.719,0.000
1627808626.082,-5.859,-10.254,-14.648,1.465,0.000
1627808626.086,-53.711,-23.926,-22.461,-44.922,0.000
1627808626.090,-58.105,-31.250,-22.949,-64.453,0.000
1627808626.094,-15.625,-22.461,-23.438,-25.391,0.000
1627808626.098,-4.395,-22.949,-22.949,-2.930,0.000
1627808626.102,-45.410,-27.832,-21.973,-38.574,0.000
1627808626.106,-64.941,-28.320,-21.973,-73.242,0.000
1627808626.110,-24.902,-20.020,-18.555,-41.504,0.000
1627808626.113,-1.465,-16.602,-14.648,-2.930,0.000
1627808626.117,-32.715,-20.508,-15.625,-20.508,0.000
1627808626.121,-60.547,-18.555,-16.113,-61.035,0.000
1627808626.125,-31.250,-19.043,-10.742,-51.270,0.000
1627808626.129,5.859,-20.508,-9.277,-0.488,0.000
1627808626.133,-20.020,-21.484,-14.648,-1.953,0.000
1627808626.137,-64.941,-22.461,-14.648,-48.828,0.000
1627808626.141,-46.875,-15.137,-12.207,-51.758,0.000
1627808626.145,3.418,-8.789,-12.207,-7.324,0.000
1627808626.149,0.488,-15.625,-11.230,10.254,0.000
1627808626.152,-41.016,-22.461,-16.602,-27.344,0.000
1627808626.156,-46.875,-17.090,-17.090,-51.758,0.000
1627808626.160,-1.953,-13.672,-13.184,-16.113,0.000
1627808626.164,20.508,-10.742,-12.207,20.508,0.000
1627808626.168,-19.531,-13.672,-14.160,-11.719,0.000
1627808626.172,-51.758,-19.043,-15.625,-58.594,0.000
1627808626.176,-17.578,-18.066,-8.301,-35.645,0.000
1627808626.180,2.930,-20.508,-6.836,1.465,0.000
1627808626.184,-28.320,-21.973,-13.672,-18.555,0.000
1627808626.188,-56.152,-17.578,-17.090,-59.082,0.000
1627808626.192,-32.227,-20.020,-15.625,-51.758,0.000
1627808626.195,11.719,-15.137,-13.184,-2.930,0.000
1627808626.199,-6.348,-17.578,-13.672,-2.930,0.000
1627808626.203,-55.664,-23.926,-15.625,-55.176,0.000
1627808626.207,-53.223,-21.484,-17.578,-69.336,0.000
1627808626.211,-6.348,-13.672,-16.602,-23.926,0.000
1627808626.215,-1.953,-13.672,-13.184,-0.488,0.000
1627808626.219,-46.387,-17.090,-14.160,-36.621,0.000
1627808626.223,-60.059,-11.719,-19.531,-62.500,0.000
1627808626.227,-19.531,-0.977,-22.461,-28.320,0.000
1627808626.231,4.883,-8.789,-15.625,9.277,0.000
1627808626.235,-34.180,-12.695,-18.066,-18.066,0.000
1627808626.238,-64.941,-14.160,-23.926,-58.105,0.000
1627808626.242,-29.297,-16.602,-20.020,-35.645,0.000
1627808626.246,6.348,-9.766,-20.020,4.395,0.000
1627808626.250,-20.020,-9.277,-24.414,-12.207,0.000
1627808626.254,-61.523,-22.461,-22.949,-60.547,0.000
1627808626.258,-37.109,-17.090,-15.137,-53.711,0.000
1627808626.262,6.348,-11.230,-15.625,-9.277,0.000
1627808626.266,-10.742,-13.672,-17.090,-5.859,0.000
1627808626.270,-54.199,-17.090,-19.043,-52.246,0.000
1627808626.274,-53.711,-19.043,-22.461,-69.824,0.000
1627808626.278,-8.301,-19.043,-20.996,-25.391,0.000
1627808626.281,3.418,-17.090,-18.555,0.488,0.000
1627808626.285,-36.133,-15.625,-15.137,-29.297,0.000
1627808626.289,-54.199,-17.090,-12.207,-62.012,0.000
1627808626.293,-18.066,-14.648,-13.672,-42.480,0.000
1627808626.297,1.953,-12.207,-13.672,-9.277,0.000
1627808626.301,-32.227,-11.230,-16.113,-30.273,0.000
1627808626.305,-59.082,-21.484,-15.625,-71.289,0.000
1627808626.309,-30.762,-27.832,-14.160,-56.152,0.000
1627808626.313,9.766,-15.625,-12.695,-9.766,0.000
1627808626.317,-15.625,-14.160,-16.602,-15.625,0.000
1627808626.321,-63.965,-24.902,-21.973,-64.453,0.000
1627808626.324,-49.805,-25.391,-20.020,-66.895,0.000
1627808626.328,0.000,-12.207,-16.113,-17.090,0.000
1627808626.332,-7.812,-13.184,-20.996,-7.812,0.000
1627808626.336,-60.547,-18.066,-28.320,-59.082,0.000
1627808626.340,-64.453,-15.137,-26.367,-83.984,0.000
1627808626.344,-15.625,-17.090,-20.020,-42.480,0.000
1627808626.348,-6.348,-20.508,-19.531,-15.625,0.000
1627808626.352,-46.387,-23.926,-21.484,-48.340,0.000
1627808626.356,-62.500,-23.926,-20.020,-83.984,0.000
1627808626.360,-22.461,-21.484,-14.160,-55.664,0.000
1627808626.363,4.395,-23.438,-14.648,-14.160,0.000
1627808626.367,-28.320,-27.832,-20.996,-40.039,0.000
1627808626.371,-62.988,-26.367,-25.391,-84.961,0.000
1627808626.375,-34.668,-19.043,-22.461,-68.359,0.000
1627808626.379,7.812,-5.859,-17.578,-23.926,0.000
1627808626.383,-12.695,-8.789,-18.066,-22.949,0.000
1627808626.387,-56.152,-20.996,-21.484,-68.848,0.000
1627808626.391,-43.457,-17.578,-19.531,-76.660,0.000
1627808626.395,10.742,-9.277,-11.719,-20.508,0.000
1627808626.399,16.113,-6.836,-11.230,6.348,0.000
1627808626.403,-28.809,-17.090,-18.066,-31.738,0.000
1627808626.406,-40.527,-20.020,-20.508,-54.688,0.000
1627808626.410,0.977,-16.113,-19.043,-10.742,0.000
1627808626.414,18.555,-15.137,-20.020,21.484,0.000
1627808626.418,-24.414,-20.020,-25.391,-15.137,0.000
1627808626.422,-49.805,-18.555,-25.879,-56.641,0.000
1627808626.426,-12.207,-4.883,-18.555,-31.250,0.000
1627808626.430,25.391,0.000,-13.184,15.625,0.000
1627808626.434,-12.207,-9.277,-18.066,0.000,0.000
1627808626.438,-59.082,-16.113,-20.508,-46.875,0.000
1627808626.442,-28.320,-17.090,-12.695,-37.598,0.000
1627808626.446,21.973,-11.719,-10.254,14.648,0.000
1627808626.449,3.418,-15.137,-17.090,15.137,0.000
1627808626.453,-47.363,-19.531,-20.996,-34.668,0.000
1627808626.457,-40.527,-25.391,-16.602,-41.992,0.000
1627808626.461,8.301,-11.719,-11.230,5.371,0.000
1627808626.465,9.277,-9.277,-16.602,22.949,0.000
1627808626.469,-26.855,-23.926,-14.648,-10.254,0.000
1627808626.473,-36.621,-12.695,-12.207,-40.039,0.000
1627808626.477,-1.953,-15.137,-17.578,-17.578,0.000
1627808626.481,16.602,-17.090,-19.531,20.996,0.000
1627808626.485,-16.113,-13.184,-18.066,-0.488,0.000
1627808626.489,-40.039,-15.625,-22.461,-42.969,0.000
1627808626.492,-5.371,-6.836,-19.531,-20.996,0.000
1627808626.496,28.809,-2.930,-12.207,26.855,0.000
1627808626.500,-2.441,-12.695,-15.625,13.184,0.000
1627808626.504,-38.574,-13.184,-15.625,-29.785,0.000
1627808626.508,-21.973,-10.254,-10.742,-25.879,0.000
1627808626.512,17.090,-11.230,-2.930,20.996,0.000
1627808626.516,6.348,-10.742,-1.953,26.855,0.000
1627808626.520,-42.969,-15.625,-10.254,-21.973,0.000
1627808626.524,-44.434,-18.555,-11.719,-38.086,0.000
1627808626.528,3.418,-15.625,-9.766,0.977,0.000
1627808626.531,13.672,-4.395,-5.371,22.461,0.000
1627808626.535,-33.203,6.836,-8.789,-11.719,0.000
1627808626.539,-51.758,-12.207,-11.719,-46.875,0.000
1627808626.543,-14.648,-19.043,-9.277,-19.043,0.000
1627808626.547,3.906,-15.137,-12.207,16.113,0.000
1627808626.551,-29.785,-14.160,-17.090,-8.789,0.000
1627808626.555,-60.059,-15.137,-17.578,-47.363,0.000
1627808626.559,-32.715,-8.301,-17.578,-34.180,0.000
1627808626.563,10.742,-2.930,-9.766,14.160,0.000
1627808626.567,-13.672,-11.719,-10.254,5.859,0.000
1627808626.571,-61.035,-20.996,-18.555,-47.363,0.000
1627808626.574,-41.504,-16.113,-16.113,-49.316,0.000
1627808626.578,7.812,-9.766,-10.254,0.000,0.000
1627808626.582,0.488,-12.695,-8.789,12.695,0.000
1627808626.586,-48.828,-15.625,-15.137,-32.715,0.000
1627808626.590,-50.293,-16.113,-17.090,-54.688,0.000
1627808626.594,-2.930,-14.160,-14.648,-16.602,0.000
1627808626.598,7.812,-12.695,-10.254,12.695,0.000
1627808626.602,-34.668,-18.066,-12.695,-17.578,0.000
1627808626.606,-54.688,-18.555,-15.137,-54.199,0.000
1627808626.610,-20.020,-23.438,-11.719,-28.320,0.000
1627808626.613,2.930,-16.113,-11.230,8.789,0.000
1627808626.617,-27.832,-10.254,-14.648,-13.672,0.000
1627808626.621,-53.223,-24.902,-13.672,-57.617,0.000
1627808626.625,-25.879,-17.578,-14.160,-46.387,0.000
1627808626.629,9.277,-10.742,-17.090,2.441,0.000
1627808626.633,-13.184,-16.113,-19.531,3.418,0.000
1627808626.637,-57.129,-20.996,-20.508,-41.016,0.000
1627808626.641,-41.016,-20.996,-16.602,-45.410,0.000
1627808626.645,4.395,-17.090,-14.160,-2.441,0.000
1627808626.649,0.977,-16.113,-19.531,12.207,0.000
1627808626.653,-44.922,-27.344,-25.391,-28.809,0.000
1627808626.656,-50.781,-23.926,-24.414,-56.152,0.000
1627808626.660,-2.930,-6.348,-20.020,-17.090,0.000
1627808626.664,11.719,-6.348,-17.090,14.160,0.000
1627808626.668,-31.250,-11.230,-19.531,-19.531,0.000
1627808626.672,-55.664,-7.812,-22.949,-56.641,0.000
1627808626.676,-18.555,-5.859,-24.414,-35.645,0.000
1627808626.680,14.160,2.930,-20.996,5.859,0.000
1627808626.684,-12.207,-5.859,-18.066,-3.418,0.000
1627808626.688,-50.293,-17.578,-17.578,-48.828,0.000
1627808626.692,-29.297,-15.137,-17.090,-45.898,0.000
1627808626.696,15.625,-11.719,-12.695,6.348,0.000
1627808626.699,3.418,-13.184,-12.207,8.789,0.000
1627808626.703,-43.945,-19.043,-16.113,-40.527,0.000
1627808626.707,-43.457,-17.090,-19.043,-54.688,0.000
1627808626.711,4.395,-16.602,-15.137,-14.160,0.000
1627808626.715,5.371,-22.949,-13.672,3.418,0.000
1627808626.719,-39.551,-23.926,-17.090,-33.691,0.000
1627808626.723,-54.199,-17.578,-17.578,-62.988,0.000
1627808626.727,-11.719,-15.625,-11.230,-26.367,0.000
1627808626.731,8.789,-19.531,-8.301,11.719,0.000
1627808626.735,-29.785,-19.531,-14.160,-21.484,0.000
1627808626.739,-62.988,-21.484,-19.043,-70.312,0.000
1627808626.742,-29.785,-22.949,-17.578,-51.758,0.000
1627808626.746,10.742,-11.719,-15.625,-2.441,0.000
1627808626.750,-20.508,-10.254,-20.996,-16.113,0.000
1627808626.754,-63.965,-31.250,-24.902,-64.941,0.000
1627808626.758,-43.457,-27.832,-18.066,-63.477,0.000
1627808626.762,4.395,-20.996,-16.113,-19.531,0.000
1627808626.766,-3.418,-20.020,-19.043,-9.766,0.000
1627808626.770,-48.340,-18.066,-16.113,-49.316,0.000
1627808626.774,-49.316,-20.996,-14.648,-69.336,0.000
1627808626.778,-1.953,-20.996,-14.160,-27.832,0.000
1627808626.782,2.441,-20.020,-16.602,-1.953,0.000
1627808626.785,-52.246,-22.949,-18.555,-38.574,0.000
1627808626.789,-67.383,-23.926,-20.020,-67.383,0.000
1627808626.793,-19.531,-24.414,-16.602,-38.574,0.000
1627808626.797,0.000,-24.414,-11.230,-4.395,0.000
1627808626.801,-38.574,-23.926,-16.113,-30.273,0.000
1627808626.805,-70.801,-25.391,-20.020,-75.195,0.000
1627808626.809,-39.062,-20.996,-11.719,-55.664,0.000
1627808626.813,-1.953,-16.602,-10.254,-6.836,0.000
1627808626.817,-25.391,-18.555,-16.113,-9.766,0.000
1627808626.821,-63.477,-20.020,-18.555,-56.152,0.000
1627808626.824,-48.828,-17.090,-15.625,-65.430,0.000
1627808626.828,-5.371,-10.742,-15.625,-21.973,0.000
1627808626.832,-5.859,-7.812,-15.137,-6.836,0.000
1627808626.836,-39.551,-20.508,-19.531,-48.340,0.000
1627808626.840,-42.480,-20.020,-25.391,-74.219,0.000
1627808626.844,0.488,-5.371,-21.973,-31.738,0.000
1627808626.848,18.555,-18.066,-17.578,3.906,0.000
1627808626.852,-22.461,-21.973,-23.926,-29.297,0.000
1627808626.856,-44.922,-20.508,-29.785,-64.453,0.000
1627808626.860,-15.137,-19.043,-26.367,-35.156,0.000
1627808626.864,5.371,-14.160,-23.926,6.348,0.000
1627808626.867,-25.879,-15.625,-21.484,-7.812,0.000
1627808626.871,-61.523,-20.508,-20.508,-51.270,0.000
1627808626.875,-42.480,-24.902,-20.508,-45.898,0.000
1627808626.879,1.465,-17.578,-19.531,2.441,0.000
1627808626.883,-1.953,-10.742,-22.949,3.418,0.000
1627808626.887,-41.016,-19.531,-26.367,-47.852,0.000
1627808626.891,-30.762,-18.066,-23.438,-57.129,0.000
1627808626.895,18.066,-8.301,-20.996,-8.789,0.000
1627808626.899,18.066,-13.184,-20.508,10.742,0.000
1627808626.903,-25.391,-14.648,-28.320,-31.738,0.000
1627808626.907,-39.551,-7.812,-28.320,-63.477,0.000
1627808626.910,-2.441,-16.602,-16.602,-28.809,0.000
1627808626.914,17.578,-15.137,-15.137,5.371,0.000
1627808626.918,-25.391,-13.184,-20.020,-25.879,0.000
1627808626.922,-56.641,-22.461,-20.508,-67.383,0.000
1627808626.926,-22.949,-18.555,-22.949,-44.922,0.000
1627808626.930,12.207,-16.113,-28.320,-4.395,0.000
1627808626.934,-14.648,-20.508,-27.344,-16.113,0.000
1627808626.938,-52.246,-20.996,-22.949,-58.594,0.000
1627808626.942,-34.668,-17.578,-23.926,-55.176,0.000
1627808626.946,7.324,-14.648,-18.066,-9.766,0.000
1627808626.949,-1.953,-15.137,-13.184,0.000,0.000
1627808626.953,-46.387,-13.672,-19.531,-41.016,0.000
1627808626.957,-45.898,-10.254,-18.555,-59.570,0.000
1627808626.961,-0.488,-12.695,-14.160,-18.066,0.000
1627808626.965,1.953,-24.902,-17.090,0.977,0.000
1627808626.969,-45.898,-32.227,-19.531,-39.062,0.000
1627808626.973,-61.523,-25.879,-20.508,-72.266,0.000
1627808626.977,-12.695,-15.137,-12.695,-38.574,0.000
1627808626.981,16.602,-17.090,-12.207,1.953,0.000
1627808626.985,-22.461,-17.578,-16.113,-18.066,0.000
1627808626.989,-57.617,-18.555,-19.531,-57.129,0.000
1627808626.992,-29.297,-13.184,-19.043,-42.480,0.000
1627808626.996,12.207,-3.418,-13.184,4.395,0.000
1627808627.000,-8.789,-15.137,-16.113,0.488,0.000
1627808627.004,-51.270,-20.508,-19.531,-46.875,0.000
1627808627.008,-35.645,-20.508,-17.090,-48.340,0.000
1627808627.012,7.324,-20.020,-15.137,-0.977,0.000
1627808627.016,-7.324,-23.438,-14.648,7.812,0.000
1627808627.020,-53.223,-25.879,-17.578,-33.691,0.000
1627808627.024,-49.316,-21.484,-13.184,-52.734,0.000
1627808627.028,-6.348,-13.672,-7.812,-13.184,0.000
1627808627.032,0.488,-10.742,-11.230,17.090,0.000
1627808627.035,-44.922,-20.508,-13.184,-15.625,0.000
1627808627.039,-66.406,-23.926,-11.719,-52.734,0.000
1627808627.043,-27.344,-17.090,-11.230,-29.297,0.000
1627808627.047,1.953,-14.648,-8.789,7.324,0.000
1627808627.051,-27.832,-18.066,-9.766,-9.277,0.000
1627808627.055,-55.176,-17.578,-9.277,-45.410,0.000
1627808627.059,-28.809,-16.602,-6.348,-34.180,0.000
1627808627.063,13.184,-9.277,-2.441,15.625,0.000
1627808627.067,-6.348,-13.672,-7.324,11.230,0.000
1627808627.071,-55.176,-28.809,-16.113,-42.969,0.000
1627808627.075,-38.086,-18.555,-11.230,-47.363,0.000
1627808627.078,12.695,-11.230,-4.883,2.930,0.000
1627808627.082,8.301,-10.254,-10.254,14.160,0.000
1627808627.086,-35.645,-14.160,-16.113,-28.320,0.000
1627808627.090,-39.062,-27.832,-16.602,-49.805,0.000
1627808627.094,2.930,-24.902,-17.578,-16.602,0.000
1627808627.098,22.949,-16.602,-17.090,12.207,0.000
1627808627.102,-19.531,-20.508,-15.137,-22.949,0.000
1627808627.106,-51.270,-26.855,-17.090,-63.965,0.000
1627808627.110,-17.090,-22.461,-14.648,-34.668,0.000
1627808627.114,17.578,-16.113,-9.766,10.254,0.000
1627808627.117,-15.625,-17.578,-13.672,-7.812,0.000
1627808627.121,-54.199,-18.066,-21.484,-55.664,0.000
1627808627.125,-34.180,-19.043,-25.391,-49.316,0.000
1627808627.129,0.488,-17.090,-20.996,-3.906,0.000
1627808627.133,-16.602,-14.648,-20.020,-4.883,0.000
1627808627.137,-67.383,-24.902,-24.902,-53.711,0.000
1627808627.141,-64.453,-19.531,-19.043,-69.824,0.000
1627808627.145,-12.695,-8.301,-12.207,-26.367,0.000
1627808627.149,-4.395,-14.648,-14.648,-3.418,0.000
1627808627.153,-42.969,-17.578,-17.578,-37.598,0.000
1627808627.157,-55.176,-18.555,-19.531,-65.430,0.000
1627808627.160,-19.531,-19.043,-18.066,-34.180,0.000
1627808627.164,2.930,-17.090,-14.648,5.859,0.000
1627808627.168,-31.250,-18.066,-17.090,-17.090,0.000
1627808627.172,-58.594,-6.836,-15.625,-56.152,0.000
1627808627.176,-21.973,-15.137,-10.742,-33.203,0.000
1627808627.180,16.113,-17.578,-9.766,14.648,0.000
1627808627.184,-13.672,-14.648,-14.160,1.953,0.000
1627808627.188,-59.570,-24.902,-15.625,-45.410,0.000
1627808627.192,-36.621,-22.461,-11.719,-44.922,0.000
1627808627.196,6.348,-20.020,-13.184,-4.395,0.000
1627808627.200,-4.883,-18.555,-14.160,0.977,0.000
1627808627.203,-42.480,-26.367,-14.160,-42.480,0.000
1627808627.207,-39.062,-30.762,-15.137,-55.176,0.000
1627808627.211,13.672,-15.625,-10.254,-7.324,0.000
1627808627.215,20.020,-12.207,-7.324,20.020,0.000
1627808627.219,-27.344,-20.996,-8.789,-18.555,0.000
1627808627.223,-45.410,-13.184,-10.254,-57.617,0.000
1627808627.227,-6.836,-13.672,-9.766,-30.762,0.000
1627808627.231,18.555,-18.555,-6.836,9.277,0.000
1627808627.235,-23.926,-20.996,-9.766,-17.090,0.000
1627808627.239,-62.012,-25.391,-14.648,-59.082,0.000
1627808627.242,-33.691,-21.973,-17.090,-42.480,0.000
1627808627.246,-1.953,-23.926,-15.137,-4.883,0.000
1627808627.250,-28.320,-31.738,-16.113,-11.719,0.000
1627808627.254,-69.824,-25.879,-21.484,-51.758,0.000
1627808627.258,-50.781,-11.719,-21.973,-57.129,0.000
1627808627.262,2.930,-24.414,-15.625,-6.836,0.000
1627808627.266,-2.441,-28.809,-13.672,7.812,0.000
1627808627.270,-49.316,-22.949,-19.043,-38.086,0.000
1627808627.274,-57.617,-27.344,-20.020,-57.617,0.000
1627808627.278,-8.301,-20.996,-19.531,-14.648,0.000
1627808627.282,8.789,-12.695,-20.996,16.602,0.000
1627808627.285,-39.062,-20.508,-23.926,-20.996,0.000
1627808627.289,-60.059,-19.043,-22.461,-55.664,0.000
1627808627.293,-12.695,-11.230,-18.066,-17.090,0.000
1627808627.297,14.160,-14.648,-19.531,22.949,0.000
1627808627.301,-28.809,-22.949,-28.320,-9.277,0.000
1627808627.305,-61.523,-19.531,-30.273,-54.199,0.000
1627808627.309,-26.855,-12.695,-19.043,-40.039,0.000
1627808627.313,13.672,-10.254,-17.090,4.395,0.000
1627808627.317,-8.301,-3.418,-19.531,1.953,0.000
1627808627.321,-56.152,-10.742,-22.461,-45.410,0.000
1627808627.325,-45.898,-16.602,-19.531,-51.758,0.000
1627808627.328,8.789,-0.488,-10.254,1.953,0.000
1627808627.332,6.348,-2.441,-7.812,15.625,0.000
1627808627.336,-46.387,-17.090,-17.578,-27.832,0.000
1627808627.340,-53.223,-20.020,-20.996,-47.852,0.000
1627808627.344,-0.488,-4.395,-17.090,-8.301,0.000
1627808627.348,22.949,-6.348,-13.672,24.414,0.000
1627808627.352,-27.344,-20.020,-15.625,-8.301,0.000
1627808627.356,-63.965,-20.020,-22.949,-52.246,0.000
1627808627.360,-33.203,-20.020,-21.973,-38.574,0.000
1627808627.364,0.000,-18.066,-18.555,-3.418,0.000
1627808627.367,-22.949,-15.625,-20.020,-15.137,0.000
1627808627.371,-60.547,-17.090,-24.414,-62.012,0.000
1627808627.375,-39.062,-13.184,-22.461,-52.734,0.000
1627808627.379,-2.930,-13.672,-18.066,-6.836,0.000
1627808627.383,-13.672,-15.625,-16.113,-5.371,0.000
1627808627.387,-56.152,-25.391,-23.438,-51.270,0.000
1627808627.391,-57.617,-31.250,-25.391,-69.824,0.000
1627808627.395,-4.883,-27.344,-18.066,-21.973,0.000
1627808627.399,3.418,-26.367,-18.555,4.883,0.000
1627808627.403,-41.504,-28.320,-20.508,-33.203,0.000
1627808627.407,-50.781,-27.344,-20.996,-62.012,0.000
1627808627.410,-7.324,-17.578,-16.113,-27.832,0.000
1627808627.414,6.348,-9.766,-14.160,7.324,0.000
1627808627.418,-31.250,-22.461,-18.555,-18.066,0.000
1627808627.422,-62.988,-26.855,-22.949,-59.570,0.000
1627808627.426,-24.902,-16.602,-16.113,-36.133,0.000
1627808627.430,21.484,-11.719,-7.812,13.184,0.000
1627808627.434,-10.254,-20.020,-17.578,-0.488,0.000
1627808627.438,-54.199,-30.762,-24.414,-47.852,0.000
1627808627.442,-35.645,-20.508,-17.090,-44.434,0.000
1627808627.446,7.324,-24.414,-9.766,2.930,0.000
1627808627.450,1.465,-24.414,-10.742,15.137,0.000
1627808627.453,-41.016,-19.043,-16.602,-29.297,0.000
1627808627.457,-45.898,-20.996,-16.602,-53.711,0.000
1627808627.461,0.000,-17.578,-14.160,-13.672,0.000
1627808627.465,11.719,-18.555,-16.602,13.672,0.000
1627808627.469,-32.715,-17.578,-18.555,-17.578,0.000
1627808627.473,-49.805,-16.602,-17.578,-51.270,0.000
1627808627.477,-14.648,-16.113,-15.625,-24.902,0.000
1627808627.481,6.348,-18.555,-17.578,13.184,0.000
1627808627.485,-20.996,-18.066,-21.973,-7.812,0.000
1627808627.489,-52.246,-16.113,-27.344,-56.152,0.000
1627808627.493,-27.832,-20.508,-22.461,-40.039,0.000
1627808627.496,10.254,-20.508,-14.648,11.230,0.000
1627808627.500,-13.672,-18.066,-17.578,1.953,0.000
1627808627.504,-55.664,-26.367,-24.902,-49.316,0.000
1627808627.508,-38.086,-25.879,-23.926,-48.340,0.000
1627808627.512,9.277,-19.043,-14.648,2.930,0.000
1627808627.516,-3.418,-20.020,-14.160,5.371,0.000
1627808627.520,-55.664,-21.484,-19.043,-40.527,0.000
1627808627.524,-61.035,-32.227,-9.277,-59.570,0.000
1627808627.528,-20.508,-27.832,-4.883,-23.926,0.000
1627808627.532,-6.836,-21.973,-12.207,4.395,0.000
1627808627.536,-43.945,-26.855,-15.625,-26.855,0.000
1627808627.539,-64.941,-28.320,-17.578,-63.477,0.000
1627808627.543,-21.484,-13.672,-14.648,-32.715,0.000
1627808627.547,14.160,-3.906,-13.672,10.254,0.000
1627808627.551,-16.113,-22.461,-19.043,-8.789,0.000
1627808627.555,-51.270,-27.344,-20.996,-56.641,0.000
1627808627.559,-23.926,-20.020,-17.578,-47.363,0.000
1627808627.563,20.996,-13.672,-17.090,1.465,0.000
1627808627.567,0.488,-16.602,-18.555,1.465,0.000
1627808627.571,-43.945,-23.438,-20.996,-47.363,0.000
1627808627.575,-39.551,-27.344,-25.879,-61.523,0.000
1627808627.578,6.348,-21.484,-20.996,-14.648,0.000
1627808627.582,6.348,-17.578,-16.602,7.812,0.000
1627808627.586,-35.156,-16.602,-20.996,-32.715,0.000
1627808627.590,-41.016,-15.137,-24.902,-62.012,0.000
1627808627.594,2.930,-13.184,-26.367,-28.320,0.000
1627808627.598,18.555,-15.625,-25.879,2.930,0.000
1627808627.602,-20.996,-25.879,-27.832,-26.855,0.000
1627808627.606,-49.316,-25.391,-31.250,-64.941,0.000
1627808627.610,-9.277,-12.695,-20.996,-34.668,0.000
1627808627.614,26.855,-8.789,-15.137,14.160,0.000
1627808627.618,-3.906,-11.719,-18.555,4.883,0.000
1627808627.621,-42.480,-19.043,-20.508,-41.504,0.000
1627808627.625,-22.461,-16.113,-19.531,-34.668,0.000
1627808627.629,17.578,-6.348,-14.648,15.137,0.000
1627808627.633,2.930,-8.789,-14.648,16.602,0.000
1627808627.637,-48.340,-11.230,-20.996,-36.133,0.000
1627808627.641,-46.875,-16.602,-17.578,-52.734,0.000
1627808627.645,1.465,-9.766,-12.695,-2.930,0.000
1627808627.649,0.977,-15.137,-20.020,16.113,0.000
1627808627.653,-45.898,-16.602,-22.461,-28.809,0.000
1627808627.657,-58.594,-11.230,-19.531,-56.641,0.000
1627808627.661,-17.090,-14.160,-18.555,-26.855,0.000
1627808627.664,8.789,-10.254,-13.184,8.301,0.000
1627808627.668,-31.250,-20.020,-17.090,-19.043,0.000
1627808627.672,-71.289,-32.715,-22.949,-62.500,0.000
1627808627.676,-42.480,-32.715,-21.973,-42.969,0.000
1627808627.680,-7.324,-30.273,-17.090,3.906,0.000
1627808627.684,-35.645,-27.832,-15.137,-3.418,0.000
1627808627.688,-73.730,-22.949,-19.531,-50.293,0.000
1627808627.692,-54.199,-21.484,-18.066,-47.852,0.000
1627808627.696,-8.789,-19.043,-11.719,-1.465,0.000
1627808627.700,-22.949,-21.484,-16.602,-4.395,0.000
1627808627.703,-74.219,-24.414,-22.461,-51.270,0.000
1627808627.707,-71.289,-21.973,-18.555,-60.059,0.000
1627808627.711,-12.207,-10.742,-13.672,-11.230,0.000
1627808627.715,3.906,-10.254,-12.695,16.602,0.000
1627808627.719,-39.062,-22.461,-12.695,-17.090,0.000
1627808627.723,-61.035,-16.602,-14.648,-53.711,0.000
1627808627.727,-22.461,-1.465,-14.160,-28.320,0.000
1627808627.731,8.301,-16.113,-9.766,15.625,0.000
1627808627.735,-27.344,-20.508,-11.230,-4.883,0.000
1627808627.739,-62.012,-17.578,-15.625,-51.270,0.000
1627808627.743,-37.109,-15.625,-15.137,-44.922,0.000
1627808627.746,-1.953,-11.230,-11.230,-0.488,0.000
1627808627.750,-15.625,-12.207,-11.719,1.953,0.000
1627808627.754,-53.711,-16.113,-19.531,-41.504,0.000
1627808627.758,-47.852,-20.508,-21.484,-48.340,0.000
1627808627.762,-3.418,-20.020,-14.160,-4.395,0.000
1627808627.766,-7.324,-21.484,-17.578,11.719,0.000
1627808627.770,-51.758,-20.020,-19.531,-21.973,0.000
1627808627.774,-58.105,-22.461,-18.066,-45.410,0.000
1627808627.778,-15.137,-19.531,-14.160,-10.254,0.000
1627808627.782,0.000,-16.602,-11.230,17.578,0.000
1627808627.786,-45.898,-23.926,-20.020,-20.020,0.000
1627808627.789,-72.266,-25.391,-19.531,-61.035,0.000
1627808627.793,-34.668,-26.855,-14.160,-36.133,0.000
1627808627.797,-8.301,-25.391,-13.184,5.859,0.000
1627808627.801,-38.086,-22.949,-12.207,-5.859,0.000
1627808627.805,-68.848,-25.879,-15.137,-52.246,0.000
1627808627.809,-47.852,-27.344,-19.043,-47.852,0.000
1627808627.813,-7.812,-23.438,-18.066,-3.418,0.000
1627808627.817,-22.949,-28.809,-16.602,-8.301,0.000
1627808627.821,-74.219,-27.344,-22.949,-66.406,0.000
1627808627.825,-68.848,-25.879,-24.414,-81.543,0.000
1627808627.829,-16.113,-32.227,-17.090,-27.832,0.000
1627808627.832,-14.648,-27.344,-18.555,-6.348,0.000
1627808627.836,-61.523,-32.227,-23.438,-50.293,0.000
1627808627.840,-66.406,-32.227,-19.531,-75.684,0.000
1627808627.844,-21.973,-25.391,-13.184,-38.574,0.000
1627808627.848,-6.348,-28.320,-10.742,-7.324,0.000
1627808627.852,-46.875,-28.320,-15.625,-32.715,0.000
1627808627.856,-74.219,-30.273,-18.066,-66.895,0.000
1627808627.860,-39.551,-29.785,-11.719,-47.363,0.000
1627808627.864,-6.348,-25.879,-9.277,-6.348,0.000
1627808627.868,-40.039,-26.855,-13.672,-20.508,0.000
1627808627.871,-83.984,-33.203,-17.578,-72.266,0.000
1627808627.875,-61.035,-34.668,-14.160,-67.383,0.000
1627808627.879,-11.719,-25.391,-8.301,-18.066,0.000
1627808627.883,-19.043,-23.438,-6.836,-8.301,0.000
1627808627.887,-59.570,-30.273,-10.742,-46.387,0.000
1627808627.891,-62.988,-29.785,-9.277,-62.988,0.000
1627808627.895,-14.648,-21.484,-1.953,-18.555,0.000
1627808627.899,-9.277,-18.066,-5.371,5.859,0.000
1627808627.903,-54.199,-20.996,-15.625,-28.809,0.000
1627808627.907,-71.289,-24.414,-16.113,-59.570,0.000
1627808627.911,-30.273,-22.949,-13.184,-30.762,0.000
1627808627.914,-4.395,-27.832,-18.066,6.348,0.000
1627808627.918,-41.016,-33.203,-20.020,-19.531,0.000
1627808627.922,-68.848,-30.273,-19.043,-62.988,0.000
1627808627.926,-31.250,-31.250,-14.160,-40.039,0.000
1627808627.930,12.695,-27.344,-10.742,13.672,0.000
1627808627.934,-11.719,-23.926,-14.648,4.395,0.000
1627808627.938,-53.711,-29.785,-20.020,-41.992,0.000
1627808627.942,-30.273,-27.832,-16.113,-37.109,0.000
1627808627.946,16.113,-21.484,-9.766,8.301,0.000
1627808627.950,2.441,-21.484,-12.207,18.555,0.000
1627808627.954,-40.527,-23.926,-14.160,-20.996,0.000
1627808627.957,-41.504,-23.438,-9.766,-41.504,0.000
1627808627.961,1.465,-14.648,-7.812,-1.465,0.000
1627808627.965,11.230,-6.836,-8.301,21.973,0.000
1627808627.969,-29.297,-9.277,-12.207,-16.113,0.000
1627808627.973,-45.898,-13.672,-13.672,-46.875,0.000
1627808627.977,-5.859,-11.230,-13.184,-15.137,0.000
1627808627.981,20.020,-12.207,-16.602,20.508,0.000
1627808627.985,-17.090,-18.066,-18.066,-0.488,0.000
1627808627.989,-54.688,-22.461,-20.508,-40.527,0.000
1627808627.993,-26.855,-12.207,-16.602,-21.484,0.000
1627808627.996,10.254,-3.418,-12.207,26.855,0.000
1627808628.000,-15.625,-14.648,-17.090,19.043,0.000
1627808628.004,-58.105,-17.090,-20.996,-22.461,0.000
1627808628.008,-47.852,-6.836,-23.438,-32.227,0.000
1627808628.012,-0.488,-18.066,-21.973,8.789,0.000
1627808628.016,1.953,-22.949,-19.531,24.902,0.000
1627808628.020,-36.133,-16.602,-23.438,-18.555,0.000
1627808628.024,-44.922,-17.578,-26.855,-46.387,0.000
1627808628.028,-7.324,-14.160,-27.832,-10.742,0.000
1627808628.032,10.254,-8.301,-24.414,21.484,0.000
1627808628.036,-29.297,-10.254,-26.367,-12.695,0.000
1627808628.039,-50.293,-7.324,-27.344,-53.223,0.000
1627808628.043,-12.695,-3.906,-24.414,-30.762,0.000
1627808628.047,18.066,2.441,-25.879,10.742,0.000
1627808628.051,-10.742,-2.930,-25.879,-3.418,0.000
1627808628.055,-53.711,-10.742,-31.250,-52.734,0.000
1627808628.059,-38.086,-9.277,-30.762,-46.875,0.000
1627808628.063,4.883,-5.371,-24.414,5.371,0.000
1627808628.067,-6.836,-14.160,-27.344,7.812,0.000
1627808628.071,-46.875,-24.414,-31.738,-38.086,0.000
1627808628.075,-36.133,-17.090,-27.832,-45.898,0.000
1627808628.079,8.789,-16.113,-26.855,2.930,0.000
1627808628.082,10.254,-20.020,-24.902,25.391,0.000
1627808628.086,-35.156,-20.996,-23.438,-14.160,0.000
1627808628.090,-54.688,-22.949,-25.879,-44.434,0.000
1627808628.094,-16.113,-18.066,-20.996,-13.672,0.000
1627808628.098,4.883,-15.625,-16.602,18.555,0.000
1627808628.102,-33.203,-22.461,-19.043,-7.812,0.000
1627808628.106,-61.523,-23.438,-20.996,-50.781,0.000
1627808628.110,-25.879,-5.859,-13.672,-33.691,0.000
1627808628.114,17.578,-15.137,-8.301,10.742,0.000
1627808628.118,-13.672,-26.855,-16.113,-6.348,0.000
1627808628.121,-58.594,-25.391,-21.973,-60.547,0.000
1627808628.125,-34.180,-17.090,-19.531,-61.523,0.000
1627808628.129,7.324,-14.160,-18.066,-20.508,0.000
1627808628.133,-5.371,-15.137,-16.113,-15.137,0.000
1627808628.137,-47.852,-15.625,-22.461,-57.617,0.000
1627808628.141,-45.898,-22.949,-29.297,-74.707,0.000
1627808628.145,1.465,-21.484,-25.391,-30.762,0.000
1627808628.149,4.395,-15.137,-22.949,-7.324,0.000
1627808628.153,-38.574,-22.461,-25.879,-48.828,0.000
1627808628.157,-51.270,-29.297,-21.973,-77.148,0.000
1627808628.161,-13.184,-20.996,-17.578,-43.945,0.000
1627808628.164,14.160,-13.672,-18.066,-4.395,0.000
1627808628.168,-21.484,-15.137,-19.043,-23.926,0.000
1627808628.172,-53.711,-14.648,-19.043,-59.570,0.000
1627808628.176,-20.996,-16.113,-13.672,-41.504,0.000
1627808628.180,17.578,-12.695,-5.371,9.277,0.000
1627808628.184,-5.859,-14.160,-8.301,6.836,0.000
1627808628.188,-51.758,-22.949,-18.555,-45.898,0.000
1627808628.192,-34.180,-17.090,-12.207,-53.223,0.000
1627808628.196,9.766,-11.719,-6.348,-8.301,0.000
1627808628.200,1.953,-15.625,-13.672,3.906,0.000
1627808628.204,-44.922,-14.160,-21.484,-41.016,0.000
1627808628.207,-50.293,-14.648,-20.020,-62.988,0.000
1627808628.211,-1.953,-12.695,-16.113,-20.020,0.000
1627808628.215,13.184,-12.695,-17.090,9.766,0.000
1627808628.219,-29.297,-18.066,-17.090,-23.438,0.000
1627808628.223,-61.035,-20.508,-21.484,-57.129,0.000
1627808628.227,-22.461,-19.531,-20.996,-27.832,0.000
1627808628.231,4.883,-17.090,-20.508,5.371,0.000
1627808628.235,-34.668,-10.254,-29.785,-22.461,0.000
1627808628.239,-58.594,-19.043,-29.785,-58.594,0.000
1627808628.243,-29.785,-21.484,-25.879,-45.410,0.000
1627808628.247,8.789,-12.207,-21.484,1.953,0.000
1627808628.250,-12.695,-10.254,-20.020,-3.418,0.000
1627808628.254,-59.082,-14.160,-23.438,-52.246,0.000
1627808628.258,-47.852,-17.090,-23.926,-55.176,0.000
1627808628.262,0.000,-14.648,-17.578,-6.836,0.000
1627808628.266,1.465,-11.719,-17.090,9.766,0.000
1627808628.270,-38.086,-9.766,-16.602,-27.344,0.000
1627808628.274,-47.852,-14.160,-16.602,-54.688,0.000
1627808628.278,-6.836,-18.066,-18.555,-25.879,0.000
1627808628.282,9.766,-18.066,-17.578,5.371,0.000
1627808628.286,-26.855,-24.414,-16.602,-19.043,0.000
1627808628.290,-52.734,-26.367,-18.555,-59.082,0.000
1627808628.293,-14.648,-20.020,-18.555,-42.969,0.000
1627808628.297,9.766,-15.137,-16.602,-2.930,0.000
1627808628.301,-23.438,-16.113,-16.602,-16.113,0.000
1627808628.305,-63.477,-23.926,-21.973,-65.430,0.000
1627808628.309,-45.898,-22.461,-25.391,-62.500,0.000
1627808628.313,-1.953,-17.090,-19.531,-8.301,0.000
1627808628.317,-24.902,-26.367,-21.484,-6.836,0.000
1627808628.321,-68.848,-30.762,-23.438,-54.688,0.000
1627808628.325,-56.152,-25.391,-19.043,-67.383,0.000
1627808628.329,-5.859,-22.949,-13.672,-22.461,0.000
1627808628.332,-2.441,-26.855,-11.230,9.277,0.000
1627808628.336,-49.316,-26.367,-14.648,-25.391,0.000
1627808628.340,-71.777,-16.602,-15.137,-64.453,0.000
1627808628.344,-27.344,-23.926,-9.277,-27.832,0.000
1627808628.348,4.883,-29.297,-7.324,10.742,0.000
1627808628.352,-37.598,-30.762,-12.695,-26.855,0.000
1627808628.356,-64.941,-31.738,-14.648,-66.895,0.000
1627808628.360,-22.949,-16.113,-7.324,-33.203,0.000
1627808628.364,7.812,-12.207,-3.906,9.277,0.000
1627808628.368,-24.902,-17.090,-7.812,-11.230,0.000
1627808628.372,-63.965,-21.484,-13.184,-57.617,0.000
1627808628.375,-52.246,-29.785,-17.090,-61.523,0.000
1627808628.379,-8.301,-28.809,-18.555,-14.648,0.000
1627808628.383,-21.973,-26.855,-19.043,-8.301,0.000
1627808628.387,-68.848,-26.367,-22.949,-51.758,0.000
1627808628.391,-62.500,-24.902,-19.043,-62.012,0.000
1627808628.395,-15.625,-20.020,-13.672,-15.137,0.000
1627808628.399,-2.930,-17.090,-13.184,9.277,0.000
1627808628.403,-47.363,-21.973,-20.020,-28.809,0.000
1627808628.407,-70.312,-21.973,-24.414,-65.430,0.000
1627808628.411,-26.855,-22.949,-19.531,-35.645,0.000
1627808628.415,5.859,-24.414,-14.648,7.812,0.000
1627808628.418,-24.902,-21.973,-19.043,-14.160,0.000
1627808628.422,-64.941,-26.367,-24.414,-60.547,0.000
1627808628.426,-37.109,-23.926,-20.508,-45.410,0.000
1627808628.430,7.324,-15.137,-20.508,-0.977,0.000
1627808628.434,-20.996,-21.973,-23.438,-13.184,0.000
1627808628.438,-63.477,-15.625,-25.879,-57.129,0.000
1627808628.442,-43.457,-10.254,-22.949,-56.152,0.000
1627808628.446,3.418,-20.996,-14.160,-8.789,0.000
1627808628.450,-2.930,-20.996,-15.137,3.906,0.000
1627808628.454,-43.945,-22.949,-20.996,-39.551,0.000
1627808628.457,-45.898,-23.438,-18.555,-61.035,0.000
1627808628.461,3.418,-19.531,-12.695,-21.484,0.000
1627808628.465,20.508,-19.531,-9.766,8.789,0.000
1627808628.469,-24.902,-23.926,-13.672,-20.996,0.000
1627808628.473,-48.828,-16.602,-16.113,-60.059,0.000
1627808628.477,-9.766,-9.277,-10.742,-32.715,0.000
1627808628.481,21.973,-15.625,-10.742,13.184,0.000
1627808628.485,-19.043,-21.484,-17.090,-11.230,0.000
1627808628.489,-57.129,-26.855,-19.531,-58.594,0.000
1627808628.493,-29.785,-23.926,-20.996,-48.340,0.000
1627808628.497,7.812,-18.555,-18.555,-3.906,0.000
1627808628.500,-10.254,-21.484,-18.066,-2.441,0.000
1627808628.504,-59.082,-26.367,-21.973,-45.898,0.000
1627808628.508,-52.246,-21.484,-20.020,-52.734,0.000
1627808628.512,-3.418,-20.020,-16.602,-9.277,0.000
1627808628.516,-6.348,-24.414,-16.113,5.859,0.000
1627808628.520,-45.898,-19.043,-19.531,-28.320,0.000
1627808628.524,-50.781,-17.090,-20.508,-56.641,0.000
1627808628.528,-8.301,-19.531,-16.602,-25.879,0.000
1627808628.532,7.812,-11.230,-14.648,5.859,0.000
1627808628.536,-32.227,-20.996,-15.625,-20.508,0.000
1627808628.540,-61.035,-30.762,-18.066,-60.059,0.000
1627808628.543,-31.738,-27.832,-17.090,-41.504,0.000
1627808628.547,-0.488,-28.809,-16.602,6.836,0.000
1627808628.551,-18.066,-20.996,-18.066,2.930,0.000
1627808628.555,-46.875,-17.578,-19.531,-39.551,0.000
1627808628.559,-29.785,-25.391,-17.578,-43.945,0.000
1627808628.563,10.254,-18.555,-11.719,0.977,0.000
1627808628.567,-1.465,-15.137,-11.230,9.766,0.000
1627808628.571,-49.805,-25.391,-21.484,-40.527,0.000
1627808628.575,-52.734,-28.320,-26.855,-63.477,0.000
1627808628.579,-5.859,-25.391,-20.508,-20.996,0.000
1627808628.582,7.324,-24.414,-17.578,9.766,0.000
1627808628.586,-39.062,-27.344,-21.484,-25.879,0.000
1627808628.590,-55.664,-27.344,-22.949,-58.594,0.000
1627808628.594,-8.789,-18.066,-14.160,-21.484,0.000
1627808628.598,10.742,-18.066,-13.184,17.578,0.000
1627808628.602,-25.879,-21.484,-17.090,-9.277,0.000
1627808628.606,-55.176,-28.320,-19.043,-51.758,0.000
1627808628.610,-20.508,-30.273,-17.090,-31.250,0.000
1627808628.614,21.973,-20.020,-13.184,18.555,0.000
1627808628.618,-5.859,-22.949,-17.578,9.277,0.000
1627808628.622,-47.363,-24.902,-16.602,-41.992,0.000
1627808628.625,-27.344,-18.066,-11.230,-39.062,0.000
1627808628.629,16.602,-11.230,-6.836,12.207,0.000
1627808628.633,7.812,-12.207,-7.324,19.043,0.000
1627808628.637,-34.668,-19.531,-13.184,-27.344,0.000
1627808628.641,-39.551,-12.207,-15.625,-50.293,0.000
1627808628.645,5.371,-15.625,-10.742,-10.254,0.000
1627808628.649,15.625,-19.531,-13.184,18.066,0.000
1627808628.653,-21.973,-19.043,-17.090,-15.137,0.000
1627808628.657,-42.480,-22.949,-14.648,-51.758,0.000
1627808628.661,-12.207,-28.320,-12.695,-28.320,0.000
1627808628.665,14.160,-22.949,-15.137,8.789,0.000
1627808628.668,-20.996,-21.484,-16.113,-13.184,0.000
1627808628.672,-54.688,-21.484,-15.137,-57.129,0.000
1627808628.676,-23.438,-13.184,-10.742,-41.504,0.000
1627808628.680,11.230,-9.766,-10.254,8.789,0.000
1627808628.684,-13.184,-14.648,-13.184,4.395,0.000
1627808628.688,-56.641,-20.508,-16.113,-43.945,0.000
1627808628.692,-41.504,-19.531,-16.113,-48.340,0.000
1627808628.696,5.371,-16.602,-14.160,-3.906,0.000
1627808628.700,-10.254,-23.438,-16.113,3.418,0.000
1627808628.704,-59.082,-32.227,-18.066,-40.527,0.000
1627808628.708,-68.848,-28.809,-19.043,-66.406,0.000
1627808628.711,-29.297,-20.996,-18.066,-30.273,0.000
1627808628.715,-10.254,-24.414,-16.113,5.371,0.000
1627808628.719,-52.734,-28.320,-18.555,-26.367,0.000
1627808628.723,-77.637,-19.531,-20.020,-62.500,0.000
1627808628.727,-37.598,-20.996,-19.043,-36.133,0.000
1627808628.731,-7.812,-22.461,-16.113,8.789,0.000
1627808628.735,-38.086,-17.578,-16.602,-8.301,0.000
1627808628.739,-72.754,-19.043,-20.508,-56.641,0.000
1627808628.743,-50.781,-17.578,-16.602,-47.852,0.000
